time (s)	coil I (A)	last det (V)	int current (uC)
4686.013388	1.022915	0.285175	455.197235
4686.014364	0.541853	0.285175	984.045776
4686.015274	0.100375	0.285175	1075.386841
4686.016169	0.097720	0.285175	1162.845947
4686.017103	0.097771	0.285175	1254.164062
4686.018015	0.097727	0.285175	1343.291138
4686.018916	0.097738	0.285175	1431.353149
4686.019804	0.097786	0.285175	1518.186768
4686.020750	0.097815	0.285175	1610.719727
4686.021660	0.097782	0.285175	1699.701294
4686.022550	0.097738	0.285175	1786.688110
4686.023484	0.097782	0.285175	1878.016479
4687.078354	1.008977	0.316386	447.985809
4687.079250	0.660066	0.316386	1039.404907
4687.080197	0.101393	0.316386	1135.423950
4687.081109	0.097665	0.316386	1224.494263
4687.082014	0.097745	0.316386	1312.953857
4687.082904	0.097676	0.316386	1399.885254
4687.083849	0.097709	0.316386	1492.219971
4687.084754	0.097731	0.316386	1580.666260
4687.085647	0.097701	0.316386	1667.913574
4687.086575	0.097745	0.316386	1758.621216
4687.087480	0.097760	0.316386	1847.093994
4687.088375	0.097643	0.316386	1934.484375
4688.084436	1.017242	0.288921	452.672882
4688.085335	0.651636	0.288921	1038.493408
4688.086247	0.102733	0.288921	1132.186035
4688.087186	0.097643	0.288921	1223.872681
4688.088092	0.097687	0.288921	1312.376953
4688.088991	0.097749	0.288921	1400.253296
4688.089929	0.097760	0.288921	1491.952148
4688.090824	0.097881	0.288921	1579.555542
4688.091721	0.097782	0.288921	1667.265991
4688.092606	0.097709	0.288921	1753.738281
4688.093540	0.097833	0.288921	1845.114502
4688.094450	0.097738	0.288921	1934.056152
4689.151444	1.023651	0.325269	459.619354
4689.152340	0.645718	0.325269	1038.182495
4689.153295	0.101334	0.325269	1134.956665
4689.154192	0.097687	0.325269	1222.581665
4689.155096	0.097712	0.325269	1310.913696
4689.155985	0.097760	0.325269	1397.822388
4689.156937	0.097844	0.325269	1490.970093
4689.157845	0.097687	0.325269	1579.669678
4689.158741	0.097720	0.325269	1667.226562
4689.159674	0.097797	0.325269	1758.470825
4689.160574	0.097767	0.325269	1846.461426
4689.161471	0.097687	0.325269	1934.086426
4690.152393	1.002407	0.335658	436.047119
4690.153337	0.630758	0.335658	1031.482788
4690.154264	0.101001	0.335658	1125.110718
4690.155159	0.097782	0.335658	1212.625610
4690.156073	0.097738	0.335658	1301.958130
4690.156990	0.097841	0.335658	1391.677979
4690.157900	0.097716	0.335658	1480.599609
4690.158795	0.097866	0.335658	1568.189819
4690.159747	0.097848	0.335658	1661.341064
4690.160649	0.097778	0.335658	1749.537109
4690.161549	0.097782	0.335658	1837.540894
4690.162433	0.097745	0.335658	1923.947754
4691.224018	1.015986	0.277384	449.065948
4691.224929	0.642158	0.277384	1034.072021
4691.225816	0.102770	0.277384	1125.228760
4691.226781	0.097731	0.277384	1219.538940
4691.227692	0.097841	0.277384	1308.671753
4691.228598	0.097826	0.277384	1397.302002
4691.229531	0.097852	0.277384	1488.597534
4691.230429	0.097896	0.277384	1576.507690
4691.231326	0.097819	0.277384	1664.250977
4691.232212	0.097734	0.277384	1750.843628
4691.233149	0.097837	0.277384	1842.516846
4691.234052	0.097811	0.277384	1930.840454
4692.226045	1.037388	0.280256	506.245209
4692.226966	0.558171	0.280256	1020.321045
4692.227867	0.100818	0.280256	1111.157959
4692.228757	0.097694	0.280256	1198.105713
4692.229704	0.097841	0.280256	1290.760742
4692.230607	0.097745	0.280256	1379.024780
4692.231506	0.097676	0.280256	1466.835327
4692.232392	0.097760	0.280256	1553.450684
4692.233328	0.097797	0.280256	1644.988281
4692.234241	0.097665	0.280256	1734.156250
4692.235142	0.097643	0.280256	1822.132446
4692.236070	0.097767	0.280256	1912.860474
4693.292503	1.026504	0.327428	463.979767
4693.293495	0.513475	0.327428	973.347290
4693.294391	0.100155	0.327428	1063.086182
4693.295281	0.097654	0.327428	1149.998047
4693.296193	0.097720	0.327428	1239.118408
4693.297107	0.097698	0.327428	1328.414185
4693.298013	0.097709	0.327428	1416.938354
4693.298902	0.097694	0.327428	1503.788452
4693.299855	0.097841	0.327428	1597.030518
4693.300762	0.097753	0.327428	1685.692261
4693.301660	0.097797	0.327428	1773.513672
4693.302587	0.097822	0.327428	1864.194946
4694.296594	1.086475	0.296780	547.583252
4694.297531	0.517365	0.296780	1032.353760
4694.298425	0.100093	0.296780	1121.836670
4694.299311	0.097672	0.296780	1208.374146
4694.300252	0.097804	0.296780	1300.407715
4694.301156	0.097661	0.296780	1388.693359
4694.302046	0.097701	0.296780	1475.647583
4694.302978	0.097841	0.296780	1566.834961
4694.303888	0.097720	0.296780	1655.759888
4694.304788	0.097694	0.296780	1743.684570
4694.305676	0.097778	0.296780	1830.511719
4694.306624	0.097830	0.296780	1923.254150
4695.366119	1.028551	0.325599	469.019257
4695.367035	0.606826	0.325599	1024.872070
4695.367937	0.101484	0.325599	1116.411011
4695.368845	0.097797	0.325599	1205.210327
4695.369783	0.097742	0.325599	1296.892090
4695.370694	0.097712	0.325599	1385.908081
4695.371594	0.097749	0.325599	1473.882202
4695.372519	0.097826	0.325599	1564.371216
4695.373419	0.097786	0.325599	1652.378296
4695.374318	0.097782	0.325599	1740.284302
4695.375206	0.097745	0.325599	1827.082153
4695.376149	0.097881	0.325599	1919.383789
4696.366038	1.020469	0.334743	453.088165
4696.366962	0.620746	0.334743	1026.657349
4696.367861	0.101715	0.334743	1118.099243
4696.368773	0.097723	0.334743	1207.223022
4696.369702	0.097888	0.334743	1298.161133
4696.370614	0.097705	0.334743	1387.268188
4696.371504	0.097701	0.334743	1474.222412
4696.372445	0.097767	0.334743	1566.221436
4696.373345	0.097753	0.334743	1654.198853
4696.374246	0.097837	0.334743	1742.349854
4696.375137	0.097727	0.334743	1829.424683
4696.376070	0.097789	0.334743	1920.662109
4697.438157	1.010771	0.275579	446.760956
4697.439079	0.636636	0.275579	1033.739136
4697.440017	0.101096	0.275579	1128.567383
4697.440916	0.097705	0.275579	1216.404297
4697.441804	0.097804	0.275579	1303.254150
4697.442759	0.097925	0.275579	1396.772339
4697.443667	0.097764	0.275579	1485.541748
4697.444567	0.097855	0.275579	1573.611450
4697.445503	0.097863	0.275579	1665.210815
4697.446407	0.097910	0.275579	1753.721558
4697.447298	0.097749	0.275579	1840.815918
4697.448189	0.097698	0.275579	1927.864624
4698.438605	1.006428	0.281843	441.821991
4698.439585	0.552825	0.281843	983.590210
4698.440500	0.100437	0.281843	1075.490112
4698.441401	0.097577	0.281843	1163.406860
4698.442289	0.097614	0.281843	1250.087646
4698.443230	0.097654	0.281843	1341.979858
4698.444129	0.097643	0.281843	1429.760742
4698.445022	0.097654	0.281843	1516.965576
4698.445951	0.097705	0.281843	1607.733643
4698.446867	0.097657	0.281843	1697.187866
4698.447774	0.097570	0.281843	1785.683472
4698.448666	0.097581	0.281843	1872.725342
4699.507665	1.010493	0.326932	445.627472
4699.508613	0.621863	0.326932	1035.153320
4699.509521	0.100931	0.326932	1126.799072
4699.510426	0.097518	0.326932	1215.053101
4699.511316	0.097734	0.326932	1302.036743
4699.512277	0.097753	0.326932	1395.977051
4699.513183	0.097650	0.326932	1484.448120
4699.514078	0.097665	0.326932	1571.858154
4699.514963	0.097672	0.326932	1658.297974
4699.515890	0.097742	0.326932	1748.904541
4699.516800	0.097661	0.326932	1837.776123
4699.517700	0.097657	0.326932	1925.667847
4700.507596	1.010229	0.304744	443.490723
4700.508563	0.614022	0.304744	1037.250244
4700.509462	0.100825	0.304744	1127.892090
4700.510360	0.097584	0.304744	1215.522705
4700.511248	0.097566	0.304744	1302.161255
4700.512206	0.097716	0.304744	1395.773193
4700.513099	0.097668	0.304744	1482.991089
4700.514002	0.097610	0.304744	1571.132812
4700.514894	0.097745	0.304744	1658.321655
4700.515845	0.097760	0.304744	1751.291382
4700.516756	0.097610	0.304744	1840.213989
4700.517656	0.097676	0.304744	1928.122192
4701.581262	1.008047	0.329124	442.532562
4701.582228	0.568315	0.329124	991.525269
4701.583136	0.100858	0.329124	1083.104492
4701.584034	0.097709	0.329124	1170.846924
4701.584952	0.097742	0.329124	1260.573853
4701.585858	0.097775	0.329124	1349.157715
4701.586770	0.097709	0.329124	1438.268066
4701.587668	0.097731	0.329124	1526.030273
4701.588593	0.097782	0.329124	1616.478638
4701.589499	0.097789	0.329124	1705.075684
4701.590403	0.097723	0.329124	1793.417603
4701.591290	0.097694	0.329124	1880.072266
4702.579676	1.022043	0.326815	465.029785
4702.580579	0.631948	0.326815	1035.678955
4702.581494	0.102400	0.326815	1129.374878
4702.582408	0.097705	0.326815	1218.677368
4702.583311	0.097625	0.326815	1306.832275
4702.584203	0.097672	0.326815	1393.955811
4702.585144	0.097811	0.326815	1485.996216
4702.586042	0.097694	0.326815	1573.725464
4702.586947	0.097782	0.326815	1662.218140
4702.587841	0.097661	0.326815	1749.527222
4702.588788	0.097760	0.326815	1842.105957
4702.589690	0.097705	0.326815	1930.235962
4703.652822	1.021230	0.279523	459.553711
4703.653728	0.624045	0.279523	1024.938843
4703.654657	0.101221	0.279523	1118.972900
4703.655547	0.097606	0.279523	1205.842407
4703.656511	0.097628	0.279523	1299.955933
4703.657416	0.097661	0.279523	1388.339233
4703.658306	0.097701	0.279523	1475.293457
4703.659244	0.097650	0.279523	1566.889282
4703.660160	0.097592	0.279523	1656.283203
4703.661078	0.097672	0.279523	1745.946167
4703.661965	0.097786	0.279523	1832.682007
4703.662909	0.097683	0.279523	1924.894897
4704.651214	1.024047	0.281767	454.676666
4704.652187	0.561372	0.281767	1000.891724
4704.653099	0.100551	0.281767	1092.593872
4704.653992	0.097723	0.281767	1179.860840
4704.654920	0.097793	0.281767	1270.612671
4704.655826	0.097778	0.281767	1359.199829
4704.656723	0.097789	0.281767	1446.916870
4704.657639	0.097767	0.281767	1536.471802
4704.658530	0.097756	0.281767	1623.572754
4704.659485	0.097771	0.281767	1716.944092
4704.660386	0.097745	0.281767	1805.012695
4704.661277	0.097753	0.281767	1892.110352
4705.722320	1.018751	0.317297	454.363068
4705.723228	0.642173	0.317297	1037.456055
4705.724116	0.102653	0.317297	1128.611572
4705.725085	0.097690	0.317297	1223.273560
4705.725984	0.097683	0.317297	1311.090698
4705.726892	0.097643	0.317297	1399.750366
4705.727783	0.097723	0.317297	1486.821899
4705.728708	0.097734	0.317297	1577.226196
4705.729611	0.097657	0.317297	1665.410889
4705.730514	0.097775	0.317297	1753.701416
4705.731452	0.097720	0.317297	1845.362549
4705.732355	0.097745	0.317297	1933.626587
4706.720715	1.010325	0.310952	444.542877
4706.721695	0.544420	0.310952	978.074707
4706.722612	0.100334	0.310952	1070.081421
4706.723512	0.097734	0.310952	1158.042358
4706.724432	0.097756	0.310952	1247.978149
4706.725344	0.097800	0.310952	1337.171997
4706.726255	0.097698	0.310952	1426.174683
4706.727144	0.097745	0.310952	1513.070312
4706.728080	0.097753	0.310952	1604.566895
4706.728982	0.097782	0.310952	1692.766235
4706.729876	0.097683	0.310952	1780.094971
4706.730766	0.097789	0.310952	1867.127441
4707.795417	1.018715	0.326481	453.327972
4707.796324	0.641173	0.326481	1034.871948
4707.797214	0.102378	0.326481	1125.988281
4707.798140	0.097723	0.326481	1216.480103
4707.799053	0.097738	0.326481	1305.714966
4707.799960	0.097709	0.326481	1394.336792
4707.800850	0.097756	0.326481	1481.339966
4707.801799	0.097778	0.326481	1574.131592
4707.802704	0.097701	0.326481	1662.551392
4707.803596	0.097742	0.326481	1749.736938
4707.804526	0.097723	0.326481	1840.619629
4707.805432	0.097756	0.326481	1929.186890
4708.792798	1.031404	0.329849	465.163116
4708.793704	0.625818	0.329849	1032.154175
4708.794616	0.102301	0.329849	1125.452759
4708.795544	0.097712	0.329849	1216.129883
4708.796453	0.097698	0.329849	1304.937134
4708.797348	0.097687	0.329849	1392.366821
4708.798285	0.097723	0.329849	1483.933594
4708.799188	0.097683	0.329849	1572.141479
4708.800083	0.097709	0.329849	1659.590820
4708.800970	0.097650	0.329849	1746.206543
4708.801906	0.097723	0.329849	1837.675659
4708.802795	0.097727	0.329849	1924.555054
4709.866447	1.013111	0.288800	446.782166
4709.867349	0.631824	0.288800	1016.687134
4709.868309	0.100730	0.288800	1113.387939
4709.869219	0.097687	0.288800	1202.282959
4709.870117	0.097745	0.288800	1290.058350
4709.871044	0.097874	0.288800	1380.787109
4709.871941	0.097833	0.288800	1468.543579
4709.872837	0.097760	0.288800	1556.136597
4709.873725	0.097698	0.288800	1642.892212
4709.874685	0.097892	0.288800	1736.868408
4709.875583	0.097819	0.288800	1824.709473
4709.876487	0.097797	0.288800	1913.117676
4710.863822	1.016466	0.290875	449.277985
4710.864818	0.537825	0.290875	984.951416
4710.865720	0.100287	0.290875	1075.410156
4710.866614	0.097753	0.290875	1162.801025
4710.867549	0.097804	0.290875	1254.247681
4710.868456	0.097837	0.290875	1342.985718
4710.869360	0.097844	0.290875	1431.436890
4710.870247	0.097742	0.290875	1518.133789
4710.871206	0.097844	0.290875	1611.966431
4710.872108	0.097800	0.290875	1700.182251
4710.873013	0.097683	0.290875	1788.585449
4710.873897	0.097712	0.290875	1874.963257
4711.936975	1.017612	0.316213	450.802277
4711.937932	0.593643	0.316213	1018.918213
4711.938848	0.100800	0.316213	1111.250610
4711.939744	0.097734	0.316213	1198.820557
4711.940635	0.097778	0.316213	1285.941040
4711.941590	0.097811	0.316213	1379.350830
4711.942479	0.097771	0.316213	1466.269287
4711.943400	0.097778	0.316213	1556.323120
4711.944292	0.097753	0.316213	1643.518555
4711.945237	0.097782	0.316213	1735.922485
4711.946140	0.097797	0.316213	1824.232910
4711.947031	0.097778	0.316213	1911.353394
4712.934366	1.019974	0.309860	452.868622
4712.935298	0.623408	0.309860	1033.885010
4712.936204	0.101598	0.309860	1125.932739
4712.937092	0.097676	0.309860	1212.668823
4712.938000	0.097657	0.309860	1301.341797
4712.938927	0.097668	0.309860	1391.880493
4712.939821	0.097654	0.309860	1479.182983
4712.940708	0.097625	0.309860	1565.775879
4712.941651	0.097643	0.309860	1657.853027
4712.942554	0.097698	0.309860	1746.074097
4712.943464	0.097749	0.309860	1835.025757
4712.944361	0.097709	0.309860	1922.670532
4714.009035	1.004000	0.323500	441.760132
4714.009929	0.664402	0.323500	1035.735352
4714.010903	0.100477	0.323500	1133.600220
4714.011807	0.097588	0.323500	1221.819702
4714.012713	0.097577	0.323500	1310.224365
4714.013605	0.097646	0.323500	1397.325073
4714.014541	0.097705	0.323500	1488.776978
4714.015440	0.097698	0.323500	1576.607300
4714.016333	0.097657	0.323500	1663.815430
4714.017260	0.097679	0.323500	1754.364258
4714.018165	0.097646	0.323500	1842.734375
4714.019068	0.097712	0.323500	1930.968628
4715.006960	1.019802	0.328499	482.366455
4715.007880	0.592039	0.328499	1027.041992
4715.008796	0.100792	0.328499	1119.367676
4715.009685	0.097555	0.328499	1206.093994
4715.010607	0.097767	0.328499	1296.235474
4715.011506	0.097599	0.328499	1383.976807
4715.012409	0.097614	0.328499	1472.121826
4715.013298	0.097595	0.328499	1558.884033
4715.014248	0.097672	0.328499	1651.672607
4715.015152	0.097610	0.328499	1739.911865
4715.016044	0.097639	0.328499	1827.005981
4715.016973	0.097687	0.328499	1917.756958
4716.079048	1.004985	0.290242	441.188568
4716.079941	0.650526	0.290242	1022.108398
4716.080943	0.099968	0.290242	1122.276611
4716.081854	0.097460	0.290242	1211.062378
4716.082759	0.097610	0.290242	1299.399292
4716.083647	0.097698	0.290242	1386.154907
4716.084594	0.097701	0.290242	1478.678101
4716.085511	0.097570	0.290242	1568.149414
4716.086429	0.097632	0.290242	1657.775391
4716.087317	0.097665	0.290242	1744.501709
4716.088248	0.097621	0.290242	1835.386719
4716.089166	0.097614	0.290242	1924.995972
4717.077986	1.031781	0.296104	466.364990
4717.078891	0.629081	0.296104	1035.683105
4717.079781	0.102239	0.296104	1126.675659
4717.080733	0.097764	0.296104	1219.746704
4717.081634	0.097797	0.296104	1307.861450
4717.082529	0.097756	0.296104	1395.353394
4717.083460	0.097800	0.296104	1486.405518
4717.084377	0.097903	0.296104	1576.182373
4717.085286	0.097745	0.296104	1665.032959
4717.086188	0.097676	0.296104	1753.136475
4717.087124	0.097841	0.296104	1844.715210
4717.088022	0.097786	0.296104	1932.526733
4718.150625	1.028580	0.309288	464.918304
4718.151552	0.604391	0.309288	1025.188599
4718.152448	0.101309	0.309288	1115.961060
4718.153388	0.097654	0.309288	1207.755615
4718.154282	0.097800	0.309288	1295.189087
4718.155185	0.097712	0.309288	1383.423340
4718.156078	0.097683	0.309288	1470.654297
4718.157011	0.097764	0.309288	1561.867798
4718.157921	0.097782	0.309288	1650.849365
4718.158826	0.097679	0.309288	1739.249268
4718.159712	0.097683	0.309288	1825.796509
4718.160654	0.097775	0.309288	1917.900269
4719.148012	1.044368	0.310642	486.675323
4719.148923	0.602472	0.310642	1035.527222
4719.149852	0.101697	0.310642	1130.003540
4719.150771	0.097811	0.310642	1219.892090
4719.151676	0.097731	0.310642	1308.338379
4719.152567	0.097756	0.310642	1395.439331
4719.153496	0.097833	0.310642	1486.326416
4719.154400	0.097811	0.310642	1574.747803
4719.155304	0.097808	0.310642	1663.165894
4719.156191	0.097775	0.310642	1749.891968
4719.157140	0.097852	0.310642	1842.753052
4719.158049	0.097775	0.310642	1931.630249
4720.222689	1.019220	0.319629	458.648956
4720.223586	0.645773	0.319629	1037.907104
4720.224544	0.100865	0.319629	1134.536255
4720.225450	0.097654	0.319629	1223.010620
4720.226347	0.097734	0.319629	1310.678345
4720.227255	0.097723	0.319629	1399.411133
4720.228186	0.097705	0.319629	1490.374512
4720.229097	0.097698	0.319629	1579.377197
4720.229990	0.097753	0.319629	1666.670410
4720.230938	0.097844	0.319629	1759.426758
4720.231847	0.097756	0.319629	1848.287231
4720.232743	0.097753	0.319629	1935.873657
4721.220587	1.027225	0.326074	472.523682
4721.221508	0.595214	0.326074	1020.715393
4721.222403	0.101309	0.326074	1111.386597
4721.223340	0.097712	0.326074	1202.943115
4721.224251	0.097797	0.326074	1292.035889
4721.225152	0.097694	0.326074	1380.058228
4721.226076	0.097742	0.326074	1470.371582
4721.226964	0.097753	0.326074	1557.176025
4721.227915	0.097705	0.326074	1650.093506
4721.228814	0.097705	0.326074	1737.930420
4721.229703	0.097756	0.326074	1824.835815
4721.230642	0.097804	0.326074	1916.673706
4722.292688	1.019974	0.299157	450.828674
4722.293683	0.517042	0.299157	965.285706
4722.294594	0.099924	0.299157	1056.316772
4722.295485	0.097548	0.299157	1143.231689
4722.296425	0.097793	0.299157	1235.157104
4722.297321	0.097731	0.299157	1322.723877
4722.298215	0.097639	0.299157	1410.013306
4722.299101	0.097614	0.299157	1496.498901
4722.300029	0.097738	0.299157	1587.199829
4722.300939	0.097679	0.299157	1676.088135
4722.301844	0.097668	0.299157	1764.478027
4722.302732	0.097727	0.299157	1851.259644
4723.291104	1.032832	0.298734	474.069885
4723.292015	0.614282	0.298734	1033.680908
4723.292952	0.101748	0.298734	1129.018799
4723.293854	0.097749	0.298734	1217.188477
4723.294753	0.097694	0.298734	1305.015503
4723.295641	0.097753	0.298734	1391.819946
4723.296585	0.097939	0.298734	1484.274780
4723.297477	0.097727	0.298734	1571.447266
4723.298380	0.097716	0.298734	1659.684814
4723.299266	0.097742	0.298734	1746.283936
4723.300216	0.097874	0.298734	1839.263794
4723.301119	0.097804	0.298734	1927.580811
4724.364260	1.029305	0.308611	474.509827
4724.365154	0.630630	0.308611	1038.292969
4724.366086	0.102228	0.308611	1133.569214
4724.366996	0.097705	0.308611	1222.480835
4724.367901	0.097720	0.308611	1310.917236
4724.368796	0.097764	0.308611	1398.415771
4724.369726	0.097892	0.308611	1489.455200
4724.370631	0.097734	0.308611	1577.904785
4724.371542	0.097716	0.308611	1666.924072
4724.372433	0.097716	0.308611	1753.989136
4724.373373	0.097771	0.308611	1845.893921
4724.374276	0.097654	0.308611	1934.075317
4725.361629	1.017378	0.312652	456.802704
4725.362523	0.644205	0.312652	1032.722290
4725.363483	0.100712	0.312652	1129.405518
4725.364403	0.097482	0.312652	1219.088623
4725.365293	0.097625	0.312652	1305.974487
4725.366228	0.097723	0.312652	1397.345825
4725.367130	0.097756	0.312652	1485.522095
4725.368039	0.097628	0.312652	1574.266113
4725.368931	0.097632	0.312652	1661.353760
4725.369876	0.097720	0.312652	1753.698853
4725.370780	0.097676	0.312652	1841.997803
4725.371670	0.097610	0.312652	1928.870605
4726.436317	1.025852	0.320511	460.607574
4726.437247	0.602670	0.320511	1021.090332
4726.438148	0.101071	0.320511	1112.154907
4726.439044	0.097592	0.320511	1199.596924
4726.439999	0.097661	0.320511	1292.863281
4726.440903	0.097701	0.320511	1381.185303
4726.441801	0.097668	0.320511	1468.891602
4726.442737	0.097606	0.320511	1560.250977
4726.443643	0.097705	0.320511	1648.771729
4726.444545	0.097570	0.320511	1736.779541
4726.445468	0.097643	0.320511	1826.903809
4726.446359	0.097657	0.320511	1913.916626
4727.433698	1.035890	0.326912	472.365845
4727.434606	0.620665	0.326912	1035.929932
4727.435492	0.102096	0.326912	1126.386963
4727.436452	0.097614	0.326912	1220.095947
4727.437362	0.097632	0.326912	1308.940918
4727.438259	0.097753	0.326912	1396.625122
4727.439196	0.097738	0.326912	1488.205688
4727.440104	0.097643	0.326912	1576.865356
4727.441004	0.097643	0.326912	1664.743896
4727.441896	0.097683	0.326912	1751.877197
4727.442842	0.097712	0.326912	1844.313110
4727.443735	0.097679	0.326912	1931.540894
4728.507383	1.059646	0.292941	513.928345
4728.508283	0.592775	0.292941	1047.425537
4728.509232	0.100792	0.292941	1143.077393
4728.510133	0.097518	0.292941	1230.941406
4728.511029	0.097610	0.292941	1318.399902
4728.511917	0.097606	0.292941	1405.074219
4728.512848	0.097716	0.292941	1496.047852
4728.513755	0.097712	0.292941	1584.672974
4728.514651	0.097599	0.292941	1672.121582
4728.515562	0.097665	0.292941	1761.094238
4728.516481	0.097786	0.292941	1850.959229
4728.517389	0.097621	0.292941	1939.598999
4729.505225	1.013049	0.296116	446.754761
4729.506187	0.568425	0.296116	993.579895
4729.507103	0.100646	0.296116	1085.771362
4729.508006	0.097617	0.296116	1173.919678
4729.508938	0.097668	0.296116	1264.946655
4729.509841	0.097819	0.296116	1353.276855
4729.510740	0.097632	0.296116	1441.047852
4729.511633	0.097789	0.296116	1528.373657
4729.512586	0.097811	0.296116	1621.587769
4729.513488	0.097848	0.296116	1709.846558
4729.514390	0.097665	0.296116	1797.940186
4729.515275	0.097657	0.296116	1884.367065
4730.577903	1.021622	0.312217	484.248962
4730.578810	0.602146	0.312217	1030.395386
4730.579750	0.101499	0.312217	1125.804443
4730.580659	0.097555	0.312217	1214.481934
4730.581572	0.097679	0.312217	1303.663330
4730.582470	0.097734	0.312217	1391.428833
4730.583440	0.097764	0.312217	1486.259644
4730.584347	0.097709	0.312217	1574.881470
4730.585235	0.097734	0.312217	1661.669556
4730.586170	0.097742	0.312217	1753.058105
4730.587079	0.097668	0.312217	1841.838745
4730.587976	0.097738	0.312217	1929.509766
4731.575273	1.027771	0.312438	485.107910
4731.576231	0.549994	0.312438	1012.002014
4731.577138	0.100206	0.312438	1102.889160
4731.578042	0.097603	0.312438	1191.121826
4731.578935	0.097643	0.312438	1278.316895
4731.579878	0.097723	0.312438	1370.470093
4731.580787	0.097661	0.312438	1459.244019
4731.581705	0.097723	0.312438	1548.954102
4731.582592	0.097716	0.312438	1635.628296
4731.583535	0.097657	0.312438	1727.719238
4731.584428	0.097712	0.312438	1814.976440
4731.585316	0.097723	0.312438	1901.754761
4732.649937	1.018275	0.324362	456.187256
4732.650845	0.636541	0.324362	1034.166016
4732.651735	0.102418	0.324362	1125.318237
4732.652702	0.097723	0.324362	1219.816772
4732.653609	0.097606	0.324362	1308.345581
4732.654511	0.097701	0.324362	1396.472290
4732.655437	0.097625	0.324362	1486.872559
4732.656344	0.097694	0.324362	1575.481079
4732.657243	0.097683	0.324362	1663.298218
4732.658130	0.097698	0.324362	1749.956177
4732.659073	0.097683	0.324362	1842.071289
4732.659974	0.097705	0.324362	1930.103516
4733.647322	1.010991	0.323589	449.891083
4733.648218	0.638650	0.323589	1022.121338
4733.649176	0.100909	0.323589	1118.792603
4733.650078	0.097471	0.323589	1206.711182
4733.650977	0.097643	0.323589	1294.492065
4733.651909	0.097767	0.323589	1385.611206
4733.652821	0.097672	0.323589	1474.688232
4733.653723	0.097617	0.323589	1562.738892
4733.654611	0.097749	0.323589	1649.540039
4733.655563	0.097771	0.323589	1742.618042
4733.656460	0.097731	0.323589	1830.282471
4733.657361	0.097756	0.323589	1918.360962
4734.720973	1.003242	0.299846	438.416809
4734.721936	0.599586	0.299846	1015.818298
4734.722831	0.100909	0.299846	1106.132202
4734.723739	0.097690	0.299846	1194.835083
4734.724630	0.097767	0.299846	1281.945801
4734.725560	0.097749	0.299846	1372.852417
4734.726475	0.097745	0.299846	1462.289429
4734.727370	0.097742	0.299846	1549.768311
4734.728273	0.097701	0.299846	1637.992676
4734.729199	0.097928	0.299846	1728.674438
4734.730104	0.097705	0.299846	1817.097534
4734.730995	0.097654	0.299846	1904.107056
4735.719386	1.023563	0.300390	458.556335
4735.720292	0.637723	0.300390	1036.333740
4735.721177	0.102491	0.300390	1127.038696
4735.722144	0.097679	0.300390	1221.494751
4735.723041	0.097731	0.300390	1309.159180
4735.723938	0.097515	0.300390	1396.629883
4735.724850	0.097665	0.300390	1485.700195
4735.725768	0.097837	0.300390	1575.514526
4735.726675	0.097698	0.300390	1664.126343
4735.727570	0.097767	0.300390	1751.628052
4735.728509	0.097786	0.300390	1843.448730
4735.729406	0.097793	0.300390	1931.169067
4736.790483	1.012716	0.315713	449.645935
4736.791400	0.632494	0.315713	1029.642822
4736.792352	0.100697	0.315713	1125.506348
4736.793256	0.097617	0.315713	1213.752319
4736.794154	0.097668	0.315713	1301.458618
4736.795099	0.097716	0.315713	1393.800293
4736.796003	0.097749	0.315713	1482.165405
4736.796901	0.097646	0.315713	1569.851929
4736.797809	0.097694	0.315713	1658.558105
4736.798707	0.097694	0.315713	1746.287354
4736.799647	0.097815	0.315713	1838.233398
4736.800555	0.097804	0.315713	1927.039429
4737.790410	1.001935	0.303693	437.845490
4737.791340	0.643037	0.303693	1035.869995
4737.792279	0.101111	0.303693	1130.813110
4737.793188	0.097646	0.303693	1219.573730
4737.794077	0.097709	0.303693	1306.436768
4737.795007	0.097793	0.303693	1397.384277
4737.795916	0.097738	0.303693	1486.228149
4737.796818	0.097665	0.303693	1574.321777
4737.797709	0.097683	0.303693	1661.357422
4737.798660	0.097665	0.303693	1754.236572
4737.799567	0.097811	0.303693	1842.951416
4737.800472	0.097749	0.303693	1931.414307
4738.862547	1.014825	0.329893	450.582520
4738.863455	0.643070	0.329893	1034.490112
4738.864340	0.102843	0.329893	1125.506226
4738.865298	0.097767	0.329893	1219.167358
4738.866207	0.097672	0.329893	1307.951294
4738.867107	0.097614	0.329893	1395.803467
4738.868035	0.097786	0.329893	1486.548584
4738.868935	0.097775	0.329893	1574.545776
4738.869830	0.097712	0.329893	1661.998413
4738.870715	0.097683	0.329893	1748.447998
4738.871656	0.097720	0.329893	1840.402222
4738.872561	0.097705	0.329893	1928.825317
4739.861503	1.065344	0.329152	522.018677
4739.862435	0.535598	0.329152	1021.196106
4739.863342	0.100261	0.329152	1112.133057
4739.864233	0.097570	0.329152	1199.067505
4739.865180	0.097775	0.329152	1291.660156
4739.866086	0.097668	0.329152	1380.147827
4739.866975	0.097690	0.329152	1466.994629
4739.867911	0.097701	0.329152	1558.443115
4739.868815	0.097742	0.329152	1646.801636
4739.869720	0.097636	0.329152	1735.161743
4739.870609	0.097712	0.329152	1822.028076
4739.871564	0.097764	0.329152	1915.392334
4740.934088	1.004004	0.300506	437.745697
4740.935055	0.595660	0.300506	1013.749268
4740.935963	0.100924	0.300506	1105.388306
4740.936860	0.097668	0.300506	1192.996948
4740.937748	0.097712	0.300506	1279.765503
4740.938706	0.097855	0.300506	1373.510742
4740.939597	0.097709	0.300506	1460.569214
4740.940508	0.097727	0.300506	1549.598511
4740.941408	0.097701	0.300506	1637.529785
4740.942348	0.097723	0.300506	1729.389771
4740.943256	0.097676	0.300506	1818.079346
4740.944146	0.097701	0.300506	1905.033569
4741.934038	1.020132	0.301771	460.079468
4741.934937	0.630176	0.301771	1026.607422
4741.935907	0.100455	0.301771	1124.049072
4741.936805	0.097474	0.301771	1211.581055
4741.937701	0.097617	0.301771	1299.046021
4741.938631	0.097672	0.301771	1389.881104
4741.939536	0.097610	0.301771	1478.218018
4741.940452	0.097646	0.301771	1567.662231
4741.941349	0.097566	0.301771	1655.178833
4741.942304	0.097745	0.301771	1748.525635
4741.943211	0.097679	0.301771	1837.120850
4741.944130	0.097731	0.301771	1926.935425
4743.003596	1.008058	0.316104	443.545441
4743.004584	0.559431	0.316104	996.263428
4743.005479	0.100583	0.316104	1086.285645
4743.006381	0.097789	0.316104	1174.491577
4743.007273	0.097841	0.316104	1261.765381
4743.008218	0.097826	0.316104	1354.210937
4743.009124	0.097855	0.316104	1442.867798
4743.010028	0.097767	0.316104	1531.249512
4743.010953	0.097877	0.316104	1621.785889
4743.011851	0.097841	0.316104	1709.646729
4743.012748	0.097764	0.316104	1797.340698
4743.013639	0.097782	0.316104	1884.464478
4744.005120	1.065297	0.304655	518.799438
4744.006031	0.576387	0.304655	1043.887695
4744.006918	0.101071	0.304655	1133.537231
4744.007883	0.097756	0.304655	1227.872070
4744.008781	0.097771	0.304655	1315.670410
4744.009689	0.097731	0.304655	1404.409912
4744.010583	0.097676	0.304655	1491.732056
4744.011527	0.097764	0.304655	1584.020996
4744.012433	0.097749	0.304655	1672.581665
4744.013329	0.097885	0.304655	1760.286133
4744.014260	0.097892	0.304655	1851.423462
4744.015164	0.097833	0.304655	1939.864746
4745.075150	1.014657	0.326888	451.522369
4745.076054	0.646622	0.326888	1036.068970
4745.076941	0.102653	0.326888	1127.121826
4745.077909	0.097599	0.326888	1221.597534
4745.078814	0.097690	0.326888	1310.007324
4745.079705	0.097668	0.326888	1397.029907
4745.080630	0.097720	0.326888	1487.420654
4745.081537	0.097712	0.326888	1576.045776
4745.082444	0.097606	0.326888	1664.574585
4745.083349	0.097610	0.326888	1752.911499
4745.084273	0.097727	0.326888	1843.211304
4745.085186	0.097639	0.326888	1932.355835
4746.076616	1.006161	0.323017	439.692291
4746.077593	0.557930	0.323017	984.789551
4746.078499	0.100250	0.323017	1075.616211
4746.079400	0.097540	0.323017	1163.500000
4746.080287	0.097727	0.323017	1250.183838
4746.081241	0.097800	0.323017	1343.485352
4746.082146	0.097588	0.323017	1431.802368
4746.083044	0.097636	0.323017	1519.479004
4746.083979	0.097742	0.323017	1610.867432
4746.084875	0.097811	0.323017	1698.506348
4746.085770	0.097650	0.323017	1785.903198
4746.086664	0.097599	0.323017	1873.156616
4747.146703	1.004220	0.306525	439.848297
4747.147646	0.627982	0.306525	1032.035522
4747.148555	0.101177	0.306525	1124.005249
4747.149448	0.097471	0.306525	1211.046631
4747.150334	0.097687	0.306525	1297.597168
4747.151280	0.097705	0.306525	1390.026123
4747.152193	0.097716	0.306525	1479.240845
4747.153092	0.097610	0.306525	1566.992065
4747.153979	0.097672	0.306525	1653.627197
4747.154932	0.097775	0.306525	1746.806396
4747.155842	0.097621	0.306525	1835.641357
4747.156735	0.097646	0.306525	1922.839722
4748.148227	1.071720	0.305667	532.644836
4748.149153	0.538802	0.305667	1031.575928
4748.150074	0.099675	0.305667	1123.376831
4748.150963	0.097526	0.305667	1210.077148
4748.151917	0.097789	0.305667	1303.368164
4748.152808	0.097632	0.305667	1390.358154
4748.153701	0.097738	0.305667	1477.638184
4748.154649	0.097753	0.305667	1570.307739
4748.155540	0.097654	0.305667	1657.317261
4748.156456	0.097749	0.305667	1746.855347
4748.157345	0.097701	0.305667	1833.711914
4748.158296	0.097808	0.305667	1926.726929
4749.216716	1.028954	0.316213	455.826569
4749.217725	0.497926	0.316213	958.233887
4749.218635	0.099891	0.316213	1049.135010
4749.219532	0.097694	0.316213	1136.766602
4749.220475	0.097859	0.316213	1229.047485
4749.221383	0.097771	0.316213	1317.823486
4749.222276	0.097764	0.316213	1405.126465
4749.223169	0.097789	0.316213	1492.452271
4749.224112	0.097841	0.316213	1584.715942
4749.225021	0.097808	0.316213	1673.623047
4749.225914	0.097808	0.316213	1760.965210
4749.226828	0.097793	0.316213	1850.348022
4750.219728	1.014023	0.304954	452.254456
4750.220708	0.551140	0.304954	992.371765
4750.221622	0.100474	0.304954	1084.204712
4750.222514	0.097643	0.304954	1171.302124
4750.223433	0.097797	0.304954	1261.177246
4750.224347	0.097815	0.304954	1350.580078
4750.225258	0.097742	0.304954	1439.622803
4750.226157	0.097734	0.304954	1527.485962
4750.227080	0.097756	0.304954	1617.715088
4750.227984	0.097833	0.304954	1706.156372
4750.228885	0.097753	0.304954	1794.231567
4750.229776	0.097808	0.304954	1881.378174
4751.288280	1.022000	0.328685	462.965820
4751.289186	0.636042	0.328685	1039.220215
4751.290074	0.102411	0.328685	1130.161133
4751.291020	0.097742	0.328685	1222.624756
4751.291937	0.097738	0.328685	1312.250488
4751.292856	0.097786	0.328685	1402.115479
4751.293754	0.097731	0.328685	1489.877686
4751.294706	0.097808	0.328685	1582.990479
4751.295614	0.097734	0.328685	1671.733276
4751.296532	0.097749	0.328685	1761.466919
4751.297418	0.097698	0.328685	1848.027100
4751.298364	0.097767	0.328685	1940.515015
4752.289737	1.016180	0.325655	444.070831
4752.290715	0.557765	0.325655	989.564941
4752.291630	0.100510	0.325655	1081.531860
4752.292523	0.097683	0.325655	1168.762939
4752.293467	0.097841	0.325655	1261.124390
4752.294362	0.097841	0.325655	1348.691650
4752.295260	0.097716	0.325655	1436.440674
4752.296148	0.097734	0.325655	1523.228760
4752.297089	0.097749	0.325655	1615.210571
4752.297992	0.097716	0.325655	1703.448120
4752.298909	0.097712	0.325655	1793.050415
4752.299795	0.097767	0.325655	1879.672241
4753.359876	1.033066	0.311580	511.367859
4753.360811	0.530317	0.311580	1007.214600
4753.361715	0.100247	0.311580	1097.837524
4753.362607	0.097723	0.311580	1185.006836
4753.363555	0.097837	0.311580	1277.756226
4753.364460	0.097742	0.311580	1366.212402
4753.365363	0.097760	0.311580	1454.489746
4753.366254	0.097819	0.311580	1541.646118
4753.367194	0.097822	0.311580	1633.598999
4753.368102	0.097742	0.311580	1722.348511
4753.368998	0.097793	0.311580	1809.970947
4753.369927	0.097775	0.311580	1900.803589
4754.362313	1.010449	0.305687	443.587250
4754.363209	0.648494	0.305687	1024.637573
4754.364177	0.100748	0.305687	1122.161865
4754.365082	0.097727	0.305687	1210.604858
4754.365971	0.097881	0.305687	1297.620972
4754.366897	0.097881	0.305687	1388.258667
4754.367800	0.097866	0.305687	1476.631836
4754.368713	0.097800	0.305687	1565.923462
4754.369622	0.097859	0.305687	1654.877197
4754.370538	0.097815	0.305687	1744.475708
4754.371451	0.097786	0.305687	1833.754028
4754.372340	0.097764	0.305687	1920.665894
4755.430865	1.019070	0.312902	453.486053
4755.431765	0.648516	0.312902	1037.150024
4755.432656	0.102806	0.312902	1128.750488
4755.433633	0.097720	0.312902	1224.222656
4755.434541	0.097727	0.312902	1312.958862
4755.435439	0.097698	0.312902	1400.691406
4755.436367	0.097760	0.312902	1491.412720
4755.437265	0.097808	0.312902	1579.243896
4755.438165	0.097665	0.312902	1667.142212
4755.439054	0.097742	0.312902	1754.034546
4755.439989	0.097793	0.312902	1845.470947
4755.440885	0.097815	0.312902	1933.113159
4756.433382	1.025955	0.307858	465.783386
4756.434316	0.602157	0.307858	1028.197998
4756.435205	0.101451	0.307858	1118.388306
4756.436123	0.097614	0.307858	1207.997559
4756.437057	0.097771	0.307858	1299.315674
4756.437964	0.097698	0.307858	1387.927490
4756.438862	0.097789	0.307858	1475.742310
4756.439796	0.097734	0.307858	1567.026245
4756.440694	0.097775	0.307858	1654.827881
4756.441594	0.097749	0.307858	1742.802002
4756.442484	0.097727	0.307858	1829.779053
4756.443422	0.097848	0.307858	1921.560425
4757.501908	1.013254	0.327242	448.871704
4757.502804	0.654529	0.327242	1035.329590
4757.503742	0.101309	0.327242	1130.357056
4757.504655	0.097650	0.327242	1219.511597
4757.505550	0.097716	0.327242	1306.967529
4757.506474	0.097716	0.327242	1397.257202
4757.507392	0.097698	0.327242	1486.943726
4757.508296	0.097672	0.327242	1575.239258
4757.509185	0.097698	0.327242	1662.092529
4757.510129	0.097771	0.327242	1754.388306
4757.511044	0.097727	0.327242	1843.808594
4757.511940	0.097742	0.327242	1931.385132
4758.503399	1.032477	0.324024	472.874359
4758.504338	0.588878	0.324024	1025.830933
4758.505234	0.101169	0.324024	1116.478760
4758.506119	0.097731	0.324024	1202.970459
4758.507058	0.097885	0.324024	1294.884033
4758.507967	0.097753	0.324024	1383.741211
4758.508880	0.097727	0.324024	1472.966064
4758.509778	0.097819	0.324024	1560.807129
4758.510738	0.097815	0.324024	1654.709473
4758.511638	0.097786	0.324024	1742.716553
4758.512525	0.097811	0.324024	1829.475098
4758.513439	0.097782	0.324024	1918.847778
4759.573983	1.021787	0.313490	463.891388
4759.574879	0.643107	0.313490	1040.114990
4759.575798	0.102623	0.313490	1134.425781
4759.576736	0.097731	0.313490	1226.097168
4759.577649	0.097731	0.313490	1315.325317
4759.578550	0.097672	0.313490	1403.327881
4759.579484	0.097826	0.313490	1494.697266
4759.580389	0.097789	0.313490	1583.196533
4759.581290	0.097745	0.313490	1671.265137
4759.582176	0.097701	0.313490	1757.828613
4759.583123	0.097771	0.313490	1850.417725
4759.584023	0.097753	0.313490	1938.395142
4760.575442	1.020022	0.313599	455.949860
4760.576408	0.561218	0.313599	998.086670
4760.577323	0.100668	0.313599	1090.197632
4760.578216	0.097676	0.313599	1177.422119
4760.579143	0.097749	0.313599	1268.035400
4760.580049	0.097742	0.313599	1356.589355
4760.580950	0.097665	0.313599	1444.585327
4760.581838	0.097764	0.313599	1531.399414
4760.582781	0.097734	0.313599	1623.562988
4760.583675	0.097833	0.313599	1711.025879
4760.584577	0.097771	0.313599	1799.215332
4760.585466	0.097734	0.313599	1886.101196
4761.645005	1.008673	0.308938	446.842163
4761.645899	0.643608	0.308938	1022.228088
4761.646859	0.100983	0.308938	1119.171387
4761.647769	0.097694	0.308938	1208.072998
4761.648662	0.097778	0.308938	1295.389038
4761.649595	0.097815	0.308938	1386.650391
4761.650508	0.097753	0.308938	1475.898560
4761.651407	0.097797	0.308938	1563.817749
4761.652294	0.097676	0.308938	1650.456177
4761.653237	0.097808	0.308938	1742.688721
4761.654148	0.097786	0.308938	1831.771484
4761.655049	0.097771	0.308938	1919.863159
4762.646479	1.011530	0.302001	449.119141
4762.647466	0.539919	0.302001	982.019653
4762.648387	0.099990	0.302001	1074.110596
4762.649277	0.097643	0.302001	1161.012695
4762.650214	0.097837	0.302001	1252.685913
4762.651113	0.097687	0.302001	1340.506348
4762.652029	0.097712	0.302001	1430.010864
4762.652929	0.097720	0.302001	1517.958618
4762.653899	0.097749	0.302001	1612.775146
4762.654803	0.097742	0.302001	1701.133667
4762.655693	0.097720	0.302001	1788.104248
4762.656633	0.097870	0.302001	1880.101929
4763.716072	1.038812	0.327915	477.853638
4763.717003	0.595950	0.327915	1032.682861
4763.717897	0.101217	0.327915	1123.170898
4763.718823	0.097687	0.327915	1213.628906
4763.719733	0.097804	0.327915	1302.630493
4763.720638	0.097705	0.327915	1391.053589
4763.721525	0.097694	0.327915	1477.708252
4763.722458	0.097756	0.327915	1568.914917
4763.723363	0.097826	0.327915	1657.447388
4763.724269	0.097745	0.327915	1746.004639
4763.725155	0.097745	0.327915	1832.607056
4763.726089	0.097727	0.327915	1923.884155
4764.717018	1.022692	0.325857	463.279297
4764.717920	0.635757	0.325857	1036.731934
4764.718869	0.102122	0.325857	1133.645264
4764.719782	0.097767	0.325857	1222.906860
4764.720683	0.097683	0.325857	1310.919312
4764.721580	0.097815	0.325857	1398.659302
4764.722531	0.097859	0.325857	1491.723145
4764.723429	0.097815	0.325857	1579.560913
4764.724328	0.097723	0.325857	1667.414185
4764.725230	0.097709	0.325857	1755.547485
4764.726147	0.097775	0.325857	1845.206787
4764.727051	0.097731	0.325857	1933.555420
4765.788621	1.009618	0.314311	444.231873
4765.789560	0.620581	0.314311	1026.957520
4765.790477	0.100807	0.314311	1119.397461
4765.791394	0.097540	0.314311	1208.841919
4765.792295	0.097529	0.314311	1296.715820
4765.793252	0.097606	0.314311	1390.125000
4765.794160	0.097559	0.314311	1478.708252
4765.795082	0.097625	0.314311	1568.718018
4765.795967	0.097548	0.314311	1655.047607
4765.796914	0.097551	0.314311	1747.428711
4765.797805	0.097548	0.314311	1834.343628
4765.798699	0.097548	0.314311	1921.551147
4766.788617	1.049224	0.315592	528.808655
4766.789545	0.522111	0.315592	1013.327271
4766.790449	0.100031	0.315592	1103.754883
4766.791336	0.097515	0.315592	1190.250366
4766.792294	0.097701	0.315592	1283.848267
4766.793196	0.097679	0.315592	1371.955078
4766.794095	0.097676	0.315592	1459.765625
4766.794979	0.097636	0.315592	1546.075439
4766.795924	0.097734	0.315592	1638.434448
4766.796836	0.097679	0.315592	1727.518066
4766.797741	0.097614	0.315592	1815.858276
4766.798633	0.097683	0.315592	1902.991577
4767.859682	1.034733	0.313139	475.976990
4767.860588	0.620848	0.313139	1038.465576
4767.861474	0.102114	0.313139	1128.938843
4767.862429	0.097698	0.313139	1222.240234
4767.863337	0.097625	0.313139	1310.883301
4767.864235	0.097606	0.313139	1398.533691
4767.865164	0.097698	0.313139	1489.294922
4767.866057	0.097701	0.313139	1576.542236
4767.866950	0.097639	0.313139	1663.734009
4767.867837	0.097581	0.313139	1750.287964
4767.868795	0.097650	0.313139	1843.836792
4767.869685	0.097676	0.313139	1930.768188
4768.859106	1.026222	0.311133	462.826111
4768.860048	0.601000	0.311133	1028.967896
4768.860938	0.101327	0.311133	1119.148804
4768.861860	0.097621	0.311133	1209.155273
4768.862772	0.097581	0.311133	1298.148804
4768.863673	0.097581	0.311133	1386.068848
4768.864563	0.097518	0.311133	1472.860107
4768.865522	0.097742	0.311133	1566.594360
4768.866433	0.097668	0.311133	1655.570312
4768.867338	0.097621	0.311133	1743.917236
4768.868258	0.097636	0.311133	1833.741943
4768.869162	0.097701	0.311133	1922.063965
4769.930715	1.017389	0.328088	461.894531
4769.931607	0.649204	0.328088	1040.984619
4769.932561	0.102235	0.328088	1138.516968
4769.933465	0.097478	0.328088	1226.637085
4769.934382	0.097621	0.328088	1316.155396
4769.935279	0.097617	0.328088	1403.718018
4769.936229	0.097625	0.328088	1496.461304
4769.937138	0.097551	0.328088	1585.135376
4769.938055	0.097636	0.328088	1674.667114
4769.938942	0.097577	0.328088	1761.217773
4769.939906	0.097529	0.328088	1855.235962
4769.940800	0.097592	0.328088	1942.482788
4770.929622	1.021725	0.322606	460.797882
4770.930525	0.636683	0.322606	1035.722900
4770.931469	0.102191	0.322606	1132.191406
4770.932369	0.097628	0.322606	1220.056763
4770.933263	0.097614	0.322606	1307.323242
4770.934148	0.097628	0.322606	1393.724121
4770.935093	0.097690	0.322606	1486.041626
4770.935989	0.097712	0.322606	1573.591919
4770.936889	0.097595	0.322606	1661.427612
4770.937801	0.097694	0.322606	1750.524658
4770.938700	0.097628	0.322606	1838.292358
4770.939653	0.097588	0.322606	1931.293579
4772.003278	1.007864	0.314227	444.467926
4772.004172	0.661450	0.314227	1035.804443
4772.005150	0.100441	0.314227	1134.035400
4772.006056	0.097606	0.314227	1222.466675
4772.006961	0.097584	0.314227	1310.780396
4772.007873	0.097614	0.314227	1399.803955
4772.008788	0.097753	0.314227	1489.247681
4772.009701	0.097588	0.314227	1578.345459
4772.010590	0.097657	0.314227	1665.162964
4772.011524	0.097661	0.314227	1756.378418
4772.012427	0.097731	0.314227	1844.629272
4772.013332	0.097632	0.314227	1932.986084
4773.001213	1.025782	0.319975	503.659180
4773.002139	0.556926	0.319975	1019.372864
4773.003058	0.100393	0.319975	1111.634033
4773.003952	0.097584	0.319975	1198.874390
4773.004885	0.097650	0.319975	1289.981934
4773.005778	0.097701	0.319975	1377.229248
4773.006681	0.097698	0.319975	1465.450317
4773.007571	0.097676	0.319975	1552.381714
4773.008512	0.097657	0.319975	1644.277344
4773.009416	0.097650	0.319975	1732.553101
4773.010313	0.097636	0.319975	1820.132080
4773.011254	0.097643	0.319975	1912.013916
4774.074321	1.015430	0.309554	450.850800
4774.075260	0.627107	0.309554	1039.704224
4774.076181	0.100554	0.309554	1132.314697
4774.077089	0.097456	0.309554	1220.804810
4774.077978	0.097496	0.309554	1307.479004
4774.078911	0.097507	0.309554	1398.453369
4774.079830	0.097496	0.309554	1488.052490
4774.080728	0.097581	0.309554	1575.679810
4774.081685	0.097636	0.309554	1669.116943
4774.082587	0.097529	0.309554	1757.088379
4774.083482	0.097511	0.309554	1844.360718
4774.084370	0.097566	0.309554	1930.999268
4775.071707	1.020432	0.311943	451.031006
4775.072641	0.607039	0.311943	1018.005005
4775.073541	0.101309	0.311943	1109.182739
4775.074473	0.097592	0.311943	1200.138062
4775.075377	0.097595	0.311943	1288.364136
4775.076281	0.097533	0.311943	1376.533936
4775.077174	0.097588	0.311943	1463.679932
4775.078112	0.097643	0.311943	1555.268921
4775.079022	0.097526	0.311943	1644.017212
4775.079916	0.097489	0.311943	1731.172363
4775.080830	0.097537	0.311943	1820.320801
4775.081717	0.097570	0.311943	1906.864990
4776.145370	1.025013	0.325132	460.230988
4776.146269	0.643162	0.325132	1038.433350
4776.147161	0.102506	0.325132	1129.868774
4776.148121	0.097566	0.325132	1223.532104
4776.149033	0.097621	0.325132	1312.562256
4776.149928	0.097592	0.325132	1399.906738
4776.150843	0.097599	0.325132	1489.209717
4776.151755	0.097625	0.325132	1578.243286
4776.152663	0.097614	0.325132	1666.876343
4776.153557	0.097551	0.325132	1754.087158
4776.154492	0.097661	0.325132	1845.400269
4776.155391	0.097621	0.325132	1933.161377
4777.142738	1.007230	0.325708	448.217407
4777.143631	0.653837	0.325708	1032.093506
4777.144578	0.100990	0.325708	1127.731079
4777.145480	0.097507	0.325708	1215.682739
4777.146386	0.097588	0.325708	1304.097412
4777.147275	0.097603	0.325708	1390.866089
4777.148226	0.097731	0.325708	1483.807983
4777.149134	0.097654	0.325708	1572.477661
4777.150028	0.097573	0.325708	1659.708130
4777.150967	0.097679	0.325708	1751.429077
4777.151866	0.097661	0.325708	1839.226440
4777.152767	0.097654	0.325708	1927.212524
4778.216907	1.005073	0.315327	442.232208
4778.217892	0.534598	0.315327	968.811646
4778.218803	0.100162	0.315327	1060.059570
4778.219697	0.097515	0.315327	1147.237671
4778.220612	0.097522	0.315327	1236.470215
4778.221500	0.097515	0.315327	1323.063232
4778.222441	0.097566	0.315327	1414.872803
4778.223349	0.097606	0.315327	1503.499268
4778.224239	0.097606	0.315327	1590.368774
4778.225161	0.097562	0.315327	1680.321167
4778.226075	0.097493	0.315327	1769.429443
4778.226989	0.097559	0.315327	1858.598022
4779.214322	1.049582	0.321083	492.254181
4779.215257	0.564272	0.321083	1019.848877
4779.216164	0.100485	0.321083	1110.988403
4779.217051	0.097518	0.321083	1197.487183
4779.218002	0.097643	0.321083	1290.345459
4779.218906	0.097617	0.321083	1378.591431
4779.219795	0.097614	0.321083	1465.369873
4779.220728	0.097628	0.321083	1556.456909
4779.221631	0.097646	0.321083	1644.631714
4779.222532	0.097632	0.321083	1732.598022
4779.223420	0.097577	0.321083	1819.246338
4779.224366	0.097617	0.321083	1911.592163
4780.288479	1.022882	0.309937	460.296906
4780.289387	0.633164	0.309937	1035.209839
4780.290273	0.102019	0.309937	1125.598755
4780.291237	0.097423	0.309937	1219.514648
4780.292143	0.097496	0.309937	1307.846313
4780.293037	0.097540	0.309937	1395.047363
4780.293964	0.097584	0.309937	1485.507935
4780.294869	0.097559	0.309937	1573.798462
4780.295764	0.097522	0.309937	1661.080566
4780.296649	0.097496	0.309937	1747.364868
4780.297594	0.097496	0.309937	1839.498901
4780.298494	0.097522	0.309937	1927.268677
4781.285339	1.027357	0.315379	468.474854
4781.286248	0.621434	0.315379	1033.358643
4781.287185	0.101671	0.315379	1128.624512
4781.288093	0.097603	0.315379	1217.247559
4781.288993	0.097566	0.315379	1305.056885
4781.289881	0.097690	0.315379	1391.806030
4781.290819	0.097705	0.315379	1483.453369
4781.291717	0.097632	0.315379	1571.126709
4781.292612	0.097566	0.315379	1658.448242
4781.293500	0.097639	0.315379	1745.151855
4781.294458	0.097665	0.315379	1838.714722
4781.295372	0.097636	0.315379	1927.953613
4782.359518	1.023904	0.320008	470.995728
4782.360415	0.632120	0.320008	1038.007690
4782.361376	0.101627	0.320008	1135.671387
4782.362272	0.097526	0.320008	1223.054321
4782.363187	0.097551	0.320008	1312.313721
4782.364085	0.097610	0.320008	1399.967407
4782.365028	0.097617	0.320008	1492.020386
4782.365928	0.097577	0.320008	1579.839600
4782.366818	0.097559	0.320008	1666.666748
4782.367744	0.097562	0.320008	1757.009399
4782.368661	0.097511	0.320008	1846.427002
4782.369554	0.097529	0.320008	1933.520630
4783.356362	1.007252	0.323017	442.183716
4783.357327	0.569216	0.323017	991.477478
4783.358238	0.100444	0.323017	1082.982300
4783.359143	0.097511	0.323017	1171.229736
4783.360041	0.097551	0.323017	1258.830811
4783.360974	0.097683	0.323017	1349.969116
4783.361886	0.097493	0.323017	1438.882446
4783.362779	0.097643	0.323017	1526.077515
4783.363712	0.097690	0.323017	1617.222656
4783.364610	0.097643	0.323017	1704.905884
4783.365510	0.097566	0.323017	1792.715210
4783.366397	0.097529	0.323017	1879.223755
4784.431056	1.013137	0.318408	448.819794
4784.431961	0.653145	0.318408	1039.915649
4784.432846	0.102803	0.318408	1130.896118
4784.433790	0.097643	0.318408	1223.070923
4784.434697	0.097679	0.318408	1311.666138
4784.435605	0.097577	0.318408	1400.265991
4784.436494	0.097570	0.318408	1487.005371
4784.437439	0.097639	0.318408	1579.274414
4784.438341	0.097522	0.318408	1667.239258
4784.439229	0.097581	0.318408	1753.890747
4784.440161	0.097639	0.318408	1844.890381
4784.441067	0.097573	0.318408	1933.291748
4785.427914	1.008003	0.321526	441.505310
4785.428827	0.644224	0.321526	1029.681396
4785.429713	0.102671	0.321526	1120.647827
4785.430677	0.097577	0.321526	1214.711914
4785.431592	0.097555	0.321526	1303.974731
4785.432482	0.097551	0.321526	1390.795410
4785.433412	0.097562	0.321526	1481.528320
4785.434314	0.097661	0.321526	1569.618652
4785.435219	0.097603	0.321526	1657.948975
4785.436110	0.097507	0.321526	1744.828003
4785.437045	0.097643	0.321526	1836.124023
4785.437953	0.097701	0.321526	1924.836914
4786.502094	1.014646	0.310501	450.502808
4786.502997	0.626982	0.310501	1016.667908
4786.503978	0.100243	0.310501	1115.006226
4786.504892	0.097566	0.310501	1204.181519
4786.505798	0.097665	0.310501	1292.665771
4786.506686	0.097625	0.310501	1379.356323
4786.507617	0.097592	0.310501	1470.214111
4786.508532	0.097610	0.310501	1559.527100
4786.509448	0.097588	0.310501	1648.917603
4786.510342	0.097610	0.310501	1736.180786
4786.511281	0.097617	0.310501	1827.843262
4786.512175	0.097603	0.310501	1915.099976
4787.497940	1.016774	0.321450	457.548126
4787.498844	0.642810	0.321450	1038.648437
4787.499778	0.102382	0.321450	1134.272827
4787.500684	0.097599	0.321450	1222.697388
4787.501591	0.097522	0.321450	1311.149780
4787.502478	0.097559	0.321450	1397.684204
4787.503416	0.097614	0.321450	1489.245728
4787.504326	0.097581	0.321450	1578.044067
4787.505231	0.097672	0.321450	1666.437378
4787.506123	0.097610	0.321450	1753.505371
4787.507073	0.097643	0.321450	1846.265991
4787.507977	0.097559	0.321450	1934.458984
4788.573653	1.019008	0.318376	455.496368
4788.574583	0.611448	0.318376	1024.142822
4788.575484	0.101473	0.318376	1115.570312
4788.576424	0.097537	0.318376	1207.254761
4788.577320	0.097676	0.318376	1294.772217
4788.578212	0.097584	0.318376	1381.817383
4788.579096	0.097533	0.318376	1468.036499
4788.580035	0.097654	0.318376	1559.733398
4788.580940	0.097614	0.318376	1648.073608
4788.581838	0.097555	0.318376	1735.677979
4788.582725	0.097529	0.318376	1822.186523
4788.583682	0.097581	0.318376	1915.571167
4789.570002	1.009739	0.330381	445.294800
4789.570977	0.554659	0.330381	986.087769
4789.571881	0.100338	0.330381	1076.793457
4789.572768	0.097511	0.330381	1163.285645
4789.573713	0.097657	0.330381	1255.571899
4789.574623	0.097537	0.330381	1344.330200
4789.575519	0.097544	0.330381	1431.729614
4789.576404	0.097537	0.330381	1518.049561
4789.577339	0.097588	0.330381	1609.294189
4789.578245	0.097584	0.330381	1697.705566
4789.579136	0.097540	0.330381	1784.614014
4789.580072	0.097636	0.330381	1876.000854
4790.644686	1.003085	0.319806	440.354218
4790.645580	0.664607	0.319806	1034.512817
4790.646536	0.101016	0.319806	1131.083740
4790.647430	0.097581	0.319806	1218.320801
4790.648327	0.097559	0.319806	1305.830811
4790.649214	0.097661	0.319806	1392.456177
4790.650148	0.097679	0.319806	1483.688721
4790.651049	0.097581	0.319806	1571.608765
4790.651945	0.097661	0.319806	1659.113159
4790.652880	0.097679	0.319806	1750.443481
4790.653791	0.097694	0.319806	1839.442749
4790.654701	0.097646	0.319806	1928.301025
4791.641558	1.015638	0.319391	451.959106
4791.642457	0.633600	0.319391	1021.565369
4791.643435	0.100543	0.319391	1119.896606
4791.644346	0.097548	0.319391	1208.762451
4791.645235	0.097588	0.319391	1295.518066
4791.646164	0.097694	0.319391	1386.275879
4791.647063	0.097614	0.319391	1474.030396
4791.647961	0.097621	0.319391	1561.693970
4791.648851	0.097518	0.319391	1648.485229
4791.649799	0.097628	0.319391	1741.036743
4791.650703	0.097668	0.319391	1829.328979
4791.651608	0.097679	0.319391	1917.728882
4792.716239	1.006882	0.313429	446.048859
4792.717221	0.545841	0.313429	982.064819
4792.718122	0.100411	0.313429	1072.535400
4792.719046	0.097592	0.313429	1162.709961
4792.719935	0.097592	0.313429	1249.468872
4792.720871	0.097621	0.313429	1340.842041
4792.721770	0.097533	0.313429	1428.524170
4792.722660	0.097610	0.313429	1515.396973
4792.723596	0.097614	0.313429	1606.763184
4792.724501	0.097577	0.313429	1695.070312
4792.725390	0.097562	0.313429	1781.803223
4792.726312	0.097584	0.313429	1871.775879
4793.712647	1.051300	0.320676	523.547424
4793.713577	0.531925	0.320676	1018.237793
4793.714483	0.100115	0.320676	1108.941772
4793.715372	0.097592	0.320676	1195.700684
4793.716313	0.097573	0.320676	1287.517090
4793.717219	0.097581	0.320676	1375.925049
4793.718108	0.097515	0.320676	1462.615601
4793.719016	0.097632	0.320676	1551.265259
4793.719940	0.097657	0.320676	1641.500732
4793.720848	0.097522	0.320676	1730.050659
4793.721743	0.097603	0.320676	1817.404907
4793.722676	0.097595	0.320676	1908.461182
4794.787297	1.032308	0.321603	470.732605
4794.788201	0.624349	0.321603	1035.144531
4794.789154	0.101869	0.321603	1132.225586
4794.790054	0.097621	0.321603	1220.084351
4794.790954	0.097599	0.321603	1307.923340
4794.791841	0.097581	0.321603	1394.477295
4794.792773	0.097672	0.321603	1485.507690
4794.793679	0.097603	0.321603	1573.935547
4794.794581	0.097712	0.321603	1662.072144
4794.795467	0.097628	0.321603	1748.570679
4794.796419	0.097687	0.321603	1841.568481
4794.797324	0.097577	0.321603	1929.875610
4795.783642	1.030752	0.324761	462.807617
4795.784560	0.617131	0.324761	1029.334229
4795.785449	0.101898	0.324761	1119.921753
4795.786365	0.097537	0.324761	1209.265259
4795.787306	0.097566	0.324761	1301.074829
4795.788201	0.097529	0.324761	1388.363525
4795.789088	0.097657	0.324761	1474.985718
4795.790029	0.097606	0.324761	1566.833130
4795.790933	0.097573	0.324761	1655.039307
4795.791849	0.097577	0.324761	1744.419800
4795.792751	0.097606	0.324761	1832.460571
4795.793700	0.097676	0.324761	1925.154907
4796.858317	1.006121	0.320189	442.693054
4796.859285	0.560599	0.320189	985.353210
4796.860185	0.100660	0.320189	1075.947510
4796.861086	0.097511	0.320189	1163.804932
4796.861974	0.097625	0.320189	1250.495483
4796.862916	0.097617	0.320189	1342.450928
4796.863817	0.097628	0.320189	1430.413940
4796.864711	0.097646	0.320189	1517.709839
4796.865643	0.097650	0.320189	1608.719727
4796.866548	0.097661	0.320189	1697.103027
4796.867451	0.097639	0.320189	1785.271240
4796.868339	0.097603	0.320189	1871.942261
4797.855749	1.076851	0.324564	531.964172
4797.856677	0.534357	0.324564	1027.847168
4797.857582	0.100126	0.324564	1118.460937
4797.858466	0.097507	0.324564	1204.657471
4797.859419	0.097632	0.324564	1297.700562
4797.860326	0.097577	0.324564	1386.202759
4797.861219	0.097581	0.324564	1473.342163
4797.862169	0.097742	0.324564	1566.196777
4797.863069	0.097614	0.324564	1654.048950
4797.863970	0.097577	0.324564	1741.965698
4797.864859	0.097599	0.324564	1828.731079
4797.865801	0.097661	0.324564	1920.727905
4798.929885	1.023607	0.311625	464.717651
4798.930790	0.627037	0.311625	1032.186523
4798.931682	0.102037	0.311625	1123.203857
4798.932631	0.097606	0.311625	1215.832153
4798.933542	0.097566	0.311625	1304.714722
4798.934437	0.097731	0.311625	1392.183716
4798.935376	0.097584	0.311625	1483.815308
4798.936282	0.097610	0.311625	1572.249878
4798.937185	0.097500	0.311625	1660.292358
4798.938072	0.097588	0.311625	1746.852783
4798.939022	0.097606	0.311625	1839.578613
4798.939930	0.097621	0.311625	1928.218384
4799.926244	1.026738	0.319431	464.085693
4799.927150	0.633926	0.319431	1038.422485
4799.928035	0.102385	0.319431	1129.033447
4799.928983	0.097603	0.319431	1221.560669
4799.929889	0.097701	0.319431	1310.078125
4799.930797	0.097643	0.319431	1398.737793
4799.931689	0.097537	0.319431	1485.740479
4799.932633	0.097650	0.319431	1577.922241
4799.933545	0.097540	0.319431	1666.879028
4799.934440	0.097610	0.319431	1754.239868
4799.935387	0.097698	0.319431	1846.759644
4799.936285	0.097683	0.319431	1934.479126
4801.000415	1.015382	0.323255	454.891174
4801.001324	0.629114	0.323255	1026.755615
4801.002257	0.102231	0.323255	1122.137573
4801.003177	0.097570	0.323255	1211.901611
4801.004081	0.097588	0.323255	1300.121094
4801.004968	0.097566	0.323255	1386.662109
4801.005912	0.097690	0.323255	1478.881836
4801.006818	0.097617	0.323255	1567.322998
4801.007712	0.097551	0.323255	1654.533813
4801.008602	0.097665	0.323255	1741.455444
4801.009550	0.097672	0.323255	1834.048584
4801.010455	0.097650	0.323255	1922.421997
4801.997276	1.022607	0.326570	459.150757
4801.998175	0.626001	0.326570	1021.925659
4801.999138	0.100796	0.326570	1118.992065
4802.000050	0.097504	0.326570	1207.915405
4802.000946	0.097551	0.326570	1295.321289
4802.001856	0.097529	0.326570	1384.072998
4802.002752	0.097551	0.326570	1471.478882
4802.003704	0.097548	0.326570	1564.344238
4802.004619	0.097562	0.326570	1653.613770
4802.005508	0.097555	0.326570	1740.340088
4802.006458	0.097562	0.326570	1833.024292
4802.007365	0.097496	0.326570	1921.453491
4803.071968	1.023168	0.322187	457.355988
4803.072892	0.613052	0.322187	1023.815796
4803.073792	0.101704	0.322187	1115.349487
4803.074678	0.097511	0.322187	1201.744263
4803.075635	0.097625	0.322187	1295.170898
4803.076544	0.097515	0.322187	1383.811768
4803.077443	0.097610	0.322187	1471.562988
4803.078368	0.097515	0.322187	1561.764038
4803.079272	0.097632	0.322187	1650.023193
4803.080176	0.097599	0.322187	1738.252563
4803.081065	0.097529	0.322187	1824.956055
4803.082016	0.097683	0.322187	1917.852661
4804.068839	1.033337	0.326505	476.368561
4804.069761	0.591987	0.326505	1022.180908
4804.070659	0.101155	0.326505	1113.017944
4804.071596	0.097694	0.326505	1204.557251
4804.072507	0.097650	0.326505	1293.516479
4804.073408	0.097606	0.326505	1381.459717
4804.074299	0.097614	0.326505	1468.433350
4804.075236	0.097628	0.326505	1559.910889
4804.076137	0.097592	0.326505	1647.840820
4804.077039	0.097614	0.326505	1735.888184
4804.077925	0.097584	0.326505	1822.347778
4804.078867	0.097584	0.326505	1914.272095
4805.143003	1.023875	0.315685	464.839020
4805.143902	0.637277	0.315685	1037.750732
4805.144852	0.101942	0.315685	1134.595703
4805.145750	0.097559	0.315685	1222.203369
4805.146646	0.097540	0.315685	1309.599487
4805.147566	0.097504	0.315685	1399.302856
4805.148455	0.097544	0.315685	1486.019409
4805.149387	0.097507	0.315685	1576.896240
4805.150307	0.097551	0.315685	1666.643433
4805.151205	0.097537	0.315685	1754.231323
4805.152127	0.097474	0.315685	1844.102661
4805.153059	0.097482	0.315685	1934.955566
4806.140361	1.005051	0.320008	438.202362
4806.141316	0.618845	0.320008	1029.199585
4806.142229	0.100609	0.320008	1121.055664
4806.143128	0.097584	0.320008	1208.783936
4806.144016	0.097650	0.320008	1295.497314
4806.144966	0.097698	0.320008	1388.310181
4806.145867	0.097646	0.320008	1476.289673
4806.146765	0.097588	0.320008	1563.923584
4806.147652	0.097639	0.320008	1650.529541
4806.148595	0.097749	0.320008	1742.706909
4806.149503	0.097588	0.320008	1831.316650
4806.150396	0.097632	0.320008	1918.501831
4807.214029	1.009592	0.325603	444.220612
4807.214970	0.622885	0.325603	1030.354980
4807.215887	0.100862	0.325603	1122.845215
4807.216786	0.097577	0.325603	1210.566895
4807.217697	0.097606	0.325603	1299.486084
4807.218613	0.097676	0.325603	1388.957153
4807.219519	0.097599	0.325603	1477.381714
4807.220407	0.097621	0.325603	1564.068970
4807.221341	0.097603	0.325603	1655.229736
4807.222253	0.097727	0.325603	1744.356812
4807.223158	0.097595	0.325603	1832.680420
4807.224050	0.097625	0.325603	1919.761475
4808.211403	1.005256	0.327903	442.312836
4808.212379	0.555234	0.327903	984.221558
4808.213289	0.100225	0.327903	1075.425903
4808.214216	0.097540	0.327903	1165.845703
4808.215104	0.097518	0.327903	1252.442017
4808.216058	0.097507	0.327903	1345.463989
4808.216954	0.097559	0.327903	1432.876465
4808.217847	0.097595	0.327903	1520.029053
4808.218804	0.097584	0.327903	1613.417114
4808.219706	0.097522	0.327903	1701.381958
4808.220597	0.097603	0.327903	1788.345825
4808.221530	0.097606	0.327903	1879.412354
4809.285077	1.015638	0.325595	452.974762
4809.286002	0.614180	0.325595	1021.090942
4809.286902	0.101481	0.325595	1112.423584
4809.287839	0.097617	0.325595	1203.890869
4809.288752	0.097650	0.325595	1293.045410
4809.289655	0.097551	0.325595	1381.134155
4809.290547	0.097566	0.325595	1468.162964
4809.291486	0.097610	0.325595	1559.818604
4809.292389	0.097636	0.325595	1647.983398
4809.293277	0.097654	0.325595	1734.699951
4809.294203	0.097603	0.325595	1825.079956
4809.295126	0.097628	0.325595	1915.190796
4810.282962	1.010387	0.329301	448.611816
4810.283855	0.648212	0.329301	1027.464844
4810.284817	0.100961	0.329301	1124.588989
4810.285729	0.097485	0.329301	1213.495605
4810.286626	0.097595	0.329301	1301.038574
4810.287565	0.097588	0.329301	1392.673584
4810.288457	0.097621	0.329301	1479.751343
4810.289359	0.097603	0.329301	1567.788818
4810.290249	0.097518	0.329301	1654.580078
4810.291187	0.097665	0.329301	1746.189697
4810.292099	0.097566	0.329301	1835.169800
4810.293002	0.097573	0.329301	1923.278442
4811.356112	1.007274	0.318698	444.207886
4811.357014	0.649805	0.318698	1030.331787
4811.357955	0.101030	0.318698	1125.401245
4811.358877	0.097507	0.318698	1215.302979
4811.359779	0.097544	0.318698	1303.287598
4811.360702	0.097559	0.318698	1393.334229
4811.361609	0.097562	0.318698	1481.823242
4811.362518	0.097551	0.318698	1570.497314
4811.363407	0.097566	0.318698	1657.233398
4811.364344	0.097555	0.318698	1748.642334
4811.365246	0.097573	0.318698	1836.653442
4811.366147	0.097570	0.318698	1924.563599
4812.354530	1.026149	0.319097	462.793060
4812.355459	0.616399	0.319097	1035.427612
4812.356349	0.101638	0.319097	1125.885620
4812.357282	0.097581	0.319097	1216.928345
4812.358198	0.097738	0.319097	1306.456421
4812.359106	0.097584	0.319097	1395.062866
4812.360005	0.097654	0.319097	1482.853638
4812.360933	0.097643	0.319097	1573.466187
4812.361835	0.097614	0.319097	1661.513550
4812.362735	0.097540	0.319097	1749.299805
4812.363624	0.097603	0.319097	1836.068481
4812.364560	0.097603	0.319097	1927.424438
4813.427222	1.045093	0.325426	539.267883
4813.428142	0.532657	0.325426	1029.312744
4813.429032	0.100170	0.325426	1118.463745
4813.429919	0.097544	0.325426	1204.985229
4813.430861	0.097595	0.325426	1296.919922
4813.431765	0.097610	0.325426	1385.159180
4813.432668	0.097548	0.325426	1473.244629
4813.433555	0.097577	0.325426	1559.795288
4813.434491	0.097599	0.325426	1651.147827
4813.435397	0.097584	0.325426	1739.559082
4813.436292	0.097603	0.325426	1826.913330
4813.437227	0.097562	0.325426	1918.134033
4814.425570	1.038318	0.324737	475.549622
4814.426477	0.620819	0.324737	1038.632568
4814.427365	0.102001	0.324737	1129.209229
4814.428333	0.097522	0.324737	1223.610474
4814.429224	0.097570	0.324737	1310.544922
4814.430116	0.097614	0.324737	1397.616211
4814.431044	0.097668	0.324737	1488.252563
4814.431957	0.097584	0.324737	1577.346924
4814.432860	0.097573	0.324737	1665.455566
4814.433748	0.097493	0.324737	1752.029053
4814.434691	0.097544	0.324737	1844.012939
4814.435586	0.097562	0.324737	1931.331177
4815.498206	1.028987	0.325752	468.188995
4815.499116	0.619387	0.325752	1031.831299
4815.500004	0.102045	0.325752	1122.447021
4815.500950	0.097581	0.325752	1214.758301
4815.501862	0.097606	0.325752	1303.775146
4815.502759	0.097665	0.325752	1391.380493
4815.503700	0.097606	0.325752	1483.227905
4815.504602	0.097665	0.325752	1571.321533
4815.505511	0.097529	0.325752	1659.975708
4815.506399	0.097584	0.325752	1746.630493
4815.507345	0.097657	0.325752	1839.014404
4815.508245	0.097599	0.325752	1926.853394
4816.497621	1.020483	0.325228	455.135590
4816.498557	0.607031	0.325228	1023.316895
4816.499448	0.101715	0.325228	1113.945068
4816.500390	0.097643	0.325228	1205.924561
4816.501289	0.097676	0.325228	1293.735107
4816.502187	0.097636	0.325228	1381.411743
4816.503073	0.097577	0.325228	1467.864868
4816.504002	0.097628	0.325228	1558.561401
4816.504903	0.097606	0.325228	1646.504639
4816.505809	0.097661	0.325228	1734.985596
4816.506707	0.097639	0.325228	1822.665527
4816.507650	0.097672	0.325228	1914.770386
4817.569248	1.017374	0.317877	456.801056
4817.570154	0.640155	0.317877	1036.781494
4817.571042	0.102495	0.317877	1127.797119
4817.572012	0.097577	0.317877	1222.446777
4817.572928	0.097621	0.317877	1311.867432
4817.573816	0.097496	0.317877	1398.444214
4817.574745	0.097559	0.317877	1489.076172
4817.575653	0.097654	0.317877	1577.745850
4817.576573	0.097540	0.317877	1667.482910
4817.577464	0.097617	0.317877	1754.459839
4817.578423	0.097551	0.317877	1848.011475
4817.579326	0.097584	0.317877	1936.130005
4818.569161	1.009922	0.319105	444.365631
4818.570113	0.607573	0.319105	1022.775269
4818.571031	0.100437	0.319105	1114.976440
4818.571928	0.097478	0.319105	1202.414185
4818.572817	0.097533	0.319105	1289.120972
4818.573763	0.097566	0.319105	1381.418335
4818.574668	0.097610	0.319105	1469.755249
4818.575569	0.097566	0.319105	1557.662109
4818.576455	0.097617	0.319105	1644.150879
4818.577403	0.097683	0.319105	1736.754517
4818.578314	0.097518	0.319105	1825.593750
4818.579207	0.097559	0.319105	1912.713623
4819.639251	1.017561	0.329208	453.832245
4819.640257	0.527260	0.329208	984.255371
4819.641161	0.099943	0.329208	1074.603516
4819.642064	0.097504	0.329208	1162.649292
4819.642949	0.097584	0.329208	1249.011353
4819.643884	0.097595	0.329208	1340.262939
4819.644794	0.097581	0.329208	1429.061279
4819.645698	0.097595	0.329208	1517.287354
4819.646627	0.097551	0.329208	1607.912476
4819.647530	0.097646	0.329208	1696.087280
4819.648432	0.097606	0.329208	1784.128052
4819.649319	0.097588	0.329208	1870.688477
4820.640276	1.035546	0.327097	528.128235
4820.641193	0.545068	0.327097	1027.955933
4820.642087	0.100181	0.327097	1117.517456
4820.642997	0.097500	0.327097	1206.242432
4820.643936	0.097709	0.327097	1297.990967
4820.644842	0.097595	0.327097	1386.412231
4820.645741	0.097603	0.327097	1474.156860
4820.646671	0.097657	0.327097	1564.978271
4820.647570	0.097628	0.327097	1652.745972
4820.648465	0.097668	0.327097	1740.159180
4820.649353	0.097581	0.327097	1826.810669
4820.650301	0.097679	0.327097	1919.410767
4821.711332	1.034268	0.328503	473.694550
4821.712236	0.622635	0.328503	1036.557007
4821.713193	0.101499	0.328503	1133.691528
4821.714091	0.097526	0.328503	1221.269531
4821.714992	0.097573	0.328503	1309.182983
4821.715877	0.097595	0.328503	1395.554687
4821.716815	0.097665	0.328503	1487.164307
4821.717719	0.097577	0.328503	1575.373779
4821.718625	0.097595	0.328503	1663.795044
4821.719522	0.097636	0.328503	1751.374023
4821.720467	0.097668	0.328503	1843.670654
4821.721377	0.097467	0.328503	1932.365723
4822.711766	1.019967	0.326888	454.905304
4822.712667	0.633036	0.326888	1025.270630
4822.713631	0.100492	0.326888	1122.144897
4822.714533	0.097496	0.326888	1210.086548
4822.715431	0.097606	0.326888	1297.736938
4822.716366	0.097614	0.326888	1389.005615
4822.717267	0.097588	0.326888	1476.932251
4822.718160	0.097467	0.326888	1563.970337
4822.719047	0.097544	0.326888	1650.491821
4822.719992	0.097610	0.326888	1742.733154
4822.720892	0.097628	0.326888	1830.598511
4822.721798	0.097555	0.326888	1918.983276
4823.782350	1.006388	0.322840	443.817078
4823.783320	0.559603	0.322840	986.632263
4823.784234	0.100349	0.322840	1078.351318
4823.785131	0.097467	0.322840	1165.779297
4823.786040	0.097511	0.322840	1254.416748
4823.786960	0.097599	0.322840	1344.207764
4823.787872	0.097467	0.322840	1433.097656
4823.788763	0.097507	0.322840	1519.976685
4823.789705	0.097570	0.322840	1611.887207
4823.790610	0.097606	0.322840	1700.220825
4823.791512	0.097518	0.322840	1788.182373
4823.792404	0.097504	0.322840	1875.155640
4824.782796	1.011134	0.321881	445.910095
4824.783757	0.588973	0.321881	1011.913513
4824.784666	0.100426	0.321881	1103.200806
4824.785556	0.097522	0.321881	1189.995361
4824.786486	0.097551	0.321881	1280.718018
4824.787394	0.097584	0.321881	1369.324463
4824.788300	0.097614	0.321881	1457.762329
4824.789189	0.097595	0.321881	1544.524414
4824.790131	0.097668	0.321881	1636.528076
4824.791040	0.097551	0.321881	1725.202148
4824.791939	0.097511	0.321881	1812.864502
4824.792826	0.097577	0.321881	1899.415161
4825.853398	1.019623	0.328987	453.732147
4825.854329	0.609587	0.328987	1021.257935
4825.855227	0.101396	0.328987	1112.312012
4825.856160	0.097518	0.328987	1203.296631
4825.857057	0.097559	0.328987	1290.806641
4825.857963	0.097595	0.328987	1379.227905
4825.858850	0.097559	0.328987	1465.762329
4825.859788	0.097654	0.328987	1557.361572
4825.860693	0.097551	0.328987	1645.645508
4825.861587	0.097625	0.328987	1732.921875
4825.862499	0.097625	0.328987	1821.955444
4825.863424	0.097588	0.328987	1912.224243
4826.854363	1.027657	0.327013	468.611755
4826.855257	0.640430	0.327013	1041.155884
4826.856208	0.101213	0.327013	1137.409790
4826.857117	0.097500	0.327013	1226.037231
4826.858013	0.097636	0.327013	1313.518677
4826.858900	0.097614	0.327013	1400.101807
4826.859843	0.097679	0.327013	1492.213501
4826.860749	0.097584	0.327013	1580.624756
4826.861644	0.097548	0.327013	1667.929810
4826.862578	0.097694	0.327013	1759.176147
4826.863481	0.097657	0.327013	1847.360840
4826.864383	0.097628	0.327013	1935.421509
4827.924962	1.027090	0.332882	464.244598
4827.925861	0.637991	0.332882	1037.798218
4827.926822	0.101635	0.332882	1135.468994
4827.927716	0.097639	0.332882	1222.758423
4827.928632	0.097632	0.332882	1312.189209
4827.929526	0.097562	0.332882	1399.409912
4827.930454	0.097581	0.332882	1489.964722
4827.931362	0.097617	0.332882	1578.601074
4827.932253	0.097646	0.332882	1665.604126
4827.933156	0.097621	0.332882	1753.755737
4827.934095	0.097533	0.332882	1845.339233
4827.934992	0.097588	0.332882	1932.875610
4828.923863	1.015096	0.333450	455.778290
4828.924765	0.644301	0.333450	1036.937378
4828.925705	0.102231	0.333450	1133.034912
4828.926612	0.097584	0.333450	1221.543823
4828.927514	0.097540	0.333450	1309.525146
4828.928406	0.097599	0.333450	1396.583374
4828.929357	0.097614	0.333450	1489.413818
4828.930257	0.097588	0.333450	1577.242920
4828.931158	0.097544	0.333450	1665.130005
4828.932044	0.097621	0.333450	1751.622070
4828.932992	0.097606	0.333450	1844.152710
4828.933898	0.097592	0.333450	1932.570679
4829.996514	1.039171	0.320261	475.940369
4829.997424	0.616571	0.320261	1037.020020
4829.998315	0.101829	0.320261	1127.749268
4829.999258	0.097511	0.320261	1219.702148
4830.000165	0.097562	0.320261	1308.191162
4830.001078	0.097610	0.320261	1397.308960
4830.001967	0.097636	0.320261	1484.106934
4830.002913	0.097573	0.320261	1576.411255
4830.003823	0.097559	0.320261	1665.189575
4830.004716	0.097555	0.320261	1752.306152
4830.005647	0.097507	0.320261	1843.085449
4830.006545	0.097610	0.320261	1930.739136
4830.996438	1.018883	0.320845	453.402985
4830.997350	0.638119	0.320845	1035.367432
4830.998241	0.102286	0.320845	1126.504639
4830.999205	0.097625	0.320845	1220.614624
4831.000109	0.097537	0.320845	1308.787720
4831.001011	0.097614	0.320845	1396.835083
4831.001904	0.097657	0.320845	1484.043213
4831.002842	0.097646	0.320845	1575.635620
4831.003750	0.097537	0.320845	1664.198853
4831.004644	0.097603	0.320845	1751.455566
4831.005578	0.097654	0.320845	1842.664185
4831.006486	0.097657	0.320845	1931.337158
4832.067534	1.008362	0.324531	445.695923
4832.068427	0.645062	0.324531	1021.736511
4832.069386	0.100862	0.324531	1118.463013
4832.070308	0.097577	0.324531	1208.428955
4832.071208	0.097610	0.324531	1296.277832
4832.072139	0.097668	0.324531	1387.207153
4832.073050	0.097614	0.324531	1476.133057
4832.073955	0.097665	0.324531	1564.519653
4832.074841	0.097595	0.324531	1650.989014
4832.075785	0.097661	0.324531	1743.181152
4832.076687	0.097606	0.324531	1831.221924
4832.077584	0.097625	0.324531	1918.791138
4833.067467	1.012936	0.322944	449.743469
4833.068361	0.638060	0.322944	1020.169373
4833.069341	0.100254	0.322944	1118.418213
4833.070263	0.097507	0.322944	1208.319946
4833.071159	0.097529	0.322944	1295.706177
4833.072103	0.097577	0.322944	1387.818726
4833.073004	0.097592	0.322944	1475.748657
4833.073905	0.097526	0.322944	1563.619263
4833.074792	0.097562	0.322944	1650.156982
4833.075722	0.097614	0.322944	1740.937500
4833.076623	0.097650	0.322944	1828.920288
4833.077519	0.097551	0.322944	1916.326172
4834.138579	1.023391	0.326538	459.502625
4834.139543	0.563903	0.326538	1003.104675
4834.140441	0.100708	0.326538	1093.540527
4834.141333	0.097599	0.326538	1180.598755
4834.142267	0.097723	0.326538	1271.872437
4834.143180	0.097679	0.326538	1361.053711
4834.144081	0.097628	0.326538	1449.016724
4834.144974	0.097559	0.326538	1536.136597
4834.145934	0.097687	0.326538	1629.915894
4834.146836	0.097625	0.326538	1717.973145
4834.147726	0.097657	0.326538	1804.888306
4834.148662	0.097727	0.326538	1896.360840
4835.138557	1.056841	0.326562	518.908875
4835.139494	0.531050	0.326562	1016.502563
4835.140393	0.100221	0.326562	1106.601196
4835.141285	0.097555	0.326562	1193.620239
4835.142239	0.097625	0.326562	1286.754028
4835.143139	0.097679	0.326562	1374.665527
4835.144042	0.097566	0.326562	1462.767578
4835.144936	0.097573	0.326562	1549.998047
4835.145874	0.097672	0.326562	1641.614502
4835.146786	0.097723	0.326562	1730.738281
4835.147678	0.097566	0.326562	1817.767090
4835.148568	0.097679	0.326562	1904.701782
4836.210645	1.014086	0.324036	452.282196
4836.211587	0.626689	0.324036	1042.623657
4836.212490	0.101180	0.324036	1133.989624
4836.213394	0.097496	0.324036	1222.126343
4836.214294	0.097573	0.324036	1309.942261
4836.215227	0.097760	0.324036	1401.152344
4836.216131	0.097617	0.324036	1489.398315
4836.217032	0.097570	0.324036	1577.308472
4836.217921	0.097606	0.324036	1664.080444
4836.218869	0.097570	0.324036	1756.576416
4836.219776	0.097577	0.324036	1845.078613
4836.220670	0.097654	0.324036	1932.381104
4837.209560	1.025826	0.322686	464.699341
4837.210462	0.635969	0.322686	1038.343628
4837.211393	0.102261	0.322686	1133.548340
4837.212319	0.097687	0.322686	1224.006348
4837.213232	0.097650	0.322686	1313.160889
4837.214128	0.097617	0.322686	1400.625854
4837.215069	0.097687	0.322686	1492.549072
4837.215968	0.097650	0.322686	1580.336548
4837.216864	0.097595	0.322686	1667.781860
4837.217748	0.097584	0.322686	1754.046387
4837.218688	0.097745	0.322686	1845.927002
4837.219593	0.097599	0.322686	1934.254028
4838.281726	1.063414	0.328378	513.629089
4838.282640	0.574677	0.328378	1038.883423
4838.283539	0.100942	0.328378	1129.630615
4838.284425	0.097511	0.328378	1216.025391
4838.285387	0.097646	0.328378	1309.961304
4838.286288	0.097493	0.328378	1397.802246
4838.287187	0.097614	0.328378	1485.556763
4838.288118	0.097639	0.328378	1576.458862
4838.289023	0.097614	0.328378	1664.799072
4838.289925	0.097526	0.328378	1752.767212
4838.290815	0.097584	0.328378	1839.617187
4838.291772	0.097665	0.328378	1933.082397
4839.279589	1.030452	0.328898	479.160034
4839.280488	0.620779	0.328898	1037.240234
4839.281427	0.101774	0.328898	1132.805664
4839.282337	0.097643	0.328898	1221.660645
4839.283242	0.097723	0.328898	1310.100342
4839.284134	0.097646	0.328898	1397.201050
4839.285077	0.097738	0.328898	1489.368042
4839.285968	0.097760	0.328898	1576.472168
4839.286870	0.097606	0.328898	1664.512939
4839.287761	0.097599	0.328898	1751.473511
4839.288701	0.097676	0.328898	1843.288696
4839.289602	0.097555	0.328898	1931.185669
4840.352725	1.016876	0.330538	455.560547
4840.353631	0.641265	0.330538	1036.546265
4840.354521	0.102393	0.330538	1127.675659
4840.355478	0.097559	0.330538	1221.039185
4840.356384	0.097588	0.330538	1309.453857
4840.357314	0.097581	0.330538	1400.203735
4840.358204	0.097621	0.330538	1487.086304
4840.359138	0.097643	0.330538	1578.284668
4840.360048	0.097584	0.330538	1667.086304
4840.360967	0.097562	0.330538	1756.745972
4840.361855	0.097599	0.330538	1843.413818
4840.362807	0.097614	0.330538	1936.341919
4841.351164	1.040277	0.327198	504.534332
4841.352107	0.528406	0.327198	1002.820923
4841.353014	0.100049	0.327198	1093.565186
4841.353901	0.097526	0.327198	1180.070435
4841.354852	0.097720	0.327198	1273.001953
4841.355757	0.097625	0.327198	1361.352173
4841.356659	0.097595	0.327198	1449.383057
4841.357548	0.097683	0.327198	1536.223389
4841.358495	0.097654	0.327198	1628.701538
4841.359403	0.097606	0.327198	1717.328003
4841.360297	0.097551	0.327198	1804.538818
4841.361224	0.097610	0.327198	1895.023193
4842.424786	1.008827	0.325055	443.883881
4842.425714	0.627495	0.325055	1026.199341
4842.426615	0.101792	0.325055	1117.913940
4842.427536	0.097566	0.325055	1207.772095
4842.428448	0.097573	0.325055	1296.758911
4842.429363	0.097533	0.325055	1386.001587
4842.430255	0.097577	0.325055	1473.040161
4842.431182	0.097676	0.325055	1563.585571
4842.432094	0.097679	0.325055	1652.669189
4842.432997	0.097672	0.325055	1740.867065
4842.433884	0.097665	0.325055	1827.495728
4842.434815	0.097694	0.325055	1918.448975
4843.422168	1.022538	0.326263	459.119476
4843.423079	0.630941	0.326263	1033.906860
4843.423967	0.102294	0.326263	1124.743652
4843.424939	0.097394	0.326263	1219.410400
4843.425852	0.097471	0.326263	1308.401123
4843.426744	0.097493	0.326263	1395.364624
4843.427630	0.097482	0.326263	1481.733398
4843.428573	0.097584	0.326263	1573.755371
4843.429477	0.097518	0.326263	1661.911865
4843.430371	0.097544	0.326263	1749.116211
4843.431304	0.097496	0.326263	1840.080322
4843.432215	0.097592	0.326263	1928.986206
4844.496335	1.013881	0.322690	453.204620
4844.497229	0.634252	0.322690	1020.225708
4844.498192	0.100554	0.322690	1117.059448
4844.499107	0.097529	0.322690	1206.298706
4844.500002	0.097599	0.322690	1293.649658
4844.500936	0.097646	0.322690	1384.851440
4844.501842	0.097676	0.322690	1473.345703
4844.502744	0.097588	0.322690	1561.369995
4844.503635	0.097625	0.322690	1648.353394
4844.504577	0.097617	0.322690	1740.308838
4844.505479	0.097603	0.322690	1828.346313
4844.506373	0.097603	0.322690	1915.603027
4845.493192	1.006791	0.326405	438.960785
4845.494155	0.592603	0.326405	1009.637085
4845.495075	0.100236	0.326405	1101.853882
4845.495979	0.097544	0.326405	1190.033569
4845.496870	0.097646	0.326405	1277.036621
4845.497809	0.097731	0.326405	1368.805786
4845.498715	0.097683	0.326405	1457.306641
4845.499609	0.097636	0.326405	1544.592773
4845.500514	0.097625	0.326405	1632.942993
4845.501450	0.097698	0.326405	1724.388062
4845.502360	0.097646	0.326405	1813.246338
4845.503257	0.097709	0.326405	1900.891113
4846.567942	1.072742	0.327359	529.934448
4846.568886	0.520389	0.327359	1021.182007
4846.569789	0.099884	0.327359	1111.377319
4846.570677	0.097562	0.327359	1198.012573
4846.571622	0.097723	0.327359	1290.361206
4846.572521	0.097705	0.327359	1378.198120
4846.573411	0.097672	0.327359	1465.126343
4846.574347	0.097654	0.327359	1556.530273
4846.575263	0.097614	0.327359	1645.944214
4846.576162	0.097698	0.327359	1733.774536
4846.577073	0.097705	0.327359	1822.783813
4846.578006	0.097764	0.327359	1913.997314
4847.564238	1.014701	0.335021	449.512482
4847.565211	0.557073	0.335021	991.544312
4847.566121	0.100217	0.335021	1082.742065
4847.567014	0.097489	0.335021	1169.799805
4847.567942	0.097566	0.335021	1260.340942
4847.568860	0.097526	0.335021	1349.869507
4847.569753	0.097606	0.335021	1437.031860
4847.570638	0.097584	0.335021	1523.393921
4847.571575	0.097610	0.335021	1614.854370
4847.572476	0.097496	0.335021	1702.698608
4847.573363	0.097474	0.335021	1789.158325
4847.574300	0.097625	0.335021	1880.632446
4848.639446	1.013705	0.323673	451.098694
4848.640409	0.605200	0.323673	1033.906494
4848.641319	0.100653	0.323673	1125.500732
4848.642216	0.097595	0.323673	1213.043701
4848.643102	0.097625	0.323673	1299.539062
4848.644031	0.097690	0.323673	1390.293457
4848.644935	0.097610	0.323673	1478.532715
4848.645838	0.097628	0.323673	1566.690918
4848.646727	0.097614	0.323673	1653.469360
4848.647673	0.097592	0.323673	1745.791016
4848.648578	0.097537	0.323673	1834.061646
4848.649474	0.097606	0.323673	1921.516846
4849.635290	1.028694	0.332064	467.026978
4849.636192	0.634830	0.332064	1039.643921
4849.637133	0.101638	0.332064	1135.285400
4849.638042	0.097639	0.332064	1224.039429
4849.638947	0.097581	0.332064	1312.349854
4849.639836	0.097621	0.332064	1399.134766
4849.640787	0.097639	0.332064	1491.989624
4849.641696	0.097562	0.332064	1580.673706
4849.642586	0.097540	0.332064	1667.484619
4849.643511	0.097657	0.332064	1757.817749
4849.644423	0.097756	0.332064	1846.971558
4849.645335	0.097665	0.332064	1936.041870
4850.710533	1.034132	0.325474	509.827087
4850.711460	0.553422	0.325474	1022.848999
4850.712360	0.100400	0.325474	1113.209351
4850.713249	0.097566	0.325474	1199.945435
4850.714180	0.097712	0.325474	1290.915649
4850.715096	0.097529	0.325474	1380.252441
4850.716003	0.097599	0.325474	1468.774658
4850.716890	0.097606	0.325474	1555.351318
4850.717840	0.097643	0.325474	1648.111938
4850.718738	0.097577	0.325474	1735.735962
4850.719624	0.097529	0.325474	1822.146973
4850.720571	0.097679	0.325474	1914.649414
4851.706837	1.021835	0.323319	455.738281
4851.707793	0.586754	0.323319	1016.675232
4851.708703	0.100525	0.323319	1108.152832
4851.709627	0.097526	0.323319	1198.266479
4851.710519	0.097577	0.323319	1285.305054
4851.711477	0.097617	0.323319	1378.822266
4851.712371	0.097562	0.323319	1466.042969
4851.713265	0.097614	0.323319	1553.309448
4851.714192	0.097625	0.323319	1643.807373
4851.715113	0.097628	0.323319	1733.722900
4851.716014	0.097573	0.323319	1821.636353
4851.716903	0.097661	0.323319	1908.457153
4852.782029	1.007018	0.327669	444.094818
4852.782926	0.648344	0.327669	1025.658936
4852.783881	0.100774	0.327669	1121.898071
4852.784787	0.097500	0.327669	1210.233032
4852.785684	0.097555	0.327669	1297.739746
4852.786604	0.097518	0.327669	1387.456543
4852.787515	0.097661	0.327669	1476.425781
4852.788410	0.097518	0.327669	1563.704712
4852.789299	0.097588	0.327669	1650.460327
4852.790239	0.097603	0.327669	1742.206665
4852.791134	0.097588	0.327669	1829.547852
4852.792035	0.097551	0.327669	1917.441528
4853.777868	1.013317	0.334236	445.859314
4853.778781	0.641213	0.334236	1031.287109
4853.779698	0.102396	0.334236	1125.184448
4853.780641	0.097625	0.334236	1217.244385
4853.781554	0.097584	0.334236	1306.338745
4853.782447	0.097636	0.334236	1393.527222
4853.783373	0.097657	0.334236	1483.958008
4853.784278	0.097643	0.334236	1572.324707
4853.785182	0.097592	0.334236	1660.547485
4853.786071	0.097537	0.334236	1747.257568
4853.787015	0.097731	0.334236	1839.515381
4853.787918	0.097632	0.334236	1927.676880
4854.853125	1.031836	0.324310	511.790619
4854.854037	0.556161	0.324310	1019.009338
4854.854941	0.100510	0.324310	1109.870605
4854.855828	0.097562	0.324310	1196.408325
4854.856771	0.097599	0.324310	1288.444092
4854.857677	0.097610	0.324310	1376.878662
4854.858584	0.097603	0.324310	1465.404175
4854.859471	0.097632	0.324310	1552.003662
4854.860409	0.097625	0.324310	1643.575439
4854.861320	0.097603	0.324310	1732.491333
4854.862215	0.097610	0.324310	1819.852173
4854.863151	0.097716	0.324310	1911.314453
4855.848906	1.008973	0.332350	441.930328
4855.849878	0.568173	0.332350	994.194092
4855.850789	0.100228	0.332350	1085.502075
4855.851695	0.097485	0.332350	1173.823853
4855.852584	0.097537	0.332350	1260.533936
4855.853536	0.097592	0.332350	1353.441040
4855.854440	0.097551	0.332350	1441.627441
4855.855329	0.097566	0.332350	1528.363525
4855.856255	0.097679	0.332350	1618.814697
4855.857170	0.097676	0.332350	1708.187988
4855.858077	0.097555	0.332350	1796.670288
4855.858972	0.097595	0.332350	1884.018066
4856.924129	1.023603	0.326243	461.645142
4856.925036	0.624869	0.326243	1028.401611
4856.925951	0.101305	0.326243	1121.095581
4856.926852	0.097515	0.326243	1208.956299
4856.927809	0.097526	0.326243	1302.288330
4856.928716	0.097537	0.326243	1390.754028
4856.929610	0.097566	0.326243	1477.977905
4856.930541	0.097628	0.326243	1568.869751
4856.931457	0.097474	0.326243	1658.156250
4856.932357	0.097566	0.326243	1745.965576
4856.933288	0.097573	0.326243	1836.806274
4856.934186	0.097588	0.326243	1924.440186
4857.919961	1.018019	0.328991	449.964325
4857.920892	0.612407	0.328991	1020.115479
4857.921794	0.101389	0.328991	1111.568481
4857.922729	0.097562	0.328991	1202.789185
4857.923640	0.097705	0.328991	1291.798462
4857.924542	0.097588	0.328991	1379.822754
4857.925435	0.097643	0.328991	1467.017822
4857.926374	0.097665	0.328991	1558.725098
4857.927270	0.097566	0.328991	1646.144165
4857.928170	0.097599	0.328991	1733.983154
4857.929060	0.097617	0.328991	1820.862427
4857.930005	0.097639	0.328991	1913.131470
4858.995661	1.017264	0.324000	447.596375
4858.996639	0.545588	0.324000	981.181824
4858.997550	0.100243	0.324000	1072.503174
4858.998451	0.097493	0.324000	1160.344116
4858.999387	0.097617	0.324000	1251.713867
4859.000281	0.097646	0.324000	1339.009766
4859.001182	0.097595	0.324000	1426.943115
4859.002066	0.097573	0.324000	1513.197876
4859.003006	0.097690	0.324000	1605.026855
4859.003911	0.097639	0.324000	1693.390259
4859.004817	0.097723	0.324000	1781.927612
4859.005705	0.097632	0.324000	1868.624634
4859.991516	1.008787	0.334485	450.927582
4859.992413	0.651687	0.334485	1035.490845
4859.993350	0.102697	0.334485	1131.717529
4859.994279	0.097445	0.334485	1222.244019
4859.995172	0.097595	0.334485	1309.396484
4859.996068	0.097562	0.334485	1396.812256
4859.996995	0.097515	0.334485	1487.208374
4859.997905	0.097551	0.334485	1575.979980
4859.998801	0.097551	0.334485	1663.385864
4859.999739	0.097529	0.334485	1754.868408
4860.000646	0.097482	0.334485	1843.284302
4860.001540	0.097540	0.334485	1930.485352
4861.066710	1.018264	0.328121	455.164093
4861.067606	0.657982	0.328121	1044.716064
4861.068503	0.102645	0.328121	1136.788818
4861.069461	0.097668	0.328121	1230.355225
4861.070365	0.097650	0.328121	1318.630981
4861.071280	0.097712	0.328121	1408.037842
4861.072179	0.097694	0.328121	1495.864868
4861.073129	0.097668	0.328121	1588.649902
4861.074038	0.097614	0.328121	1677.380615
4861.074926	0.097654	0.328121	1764.097168
4861.075854	0.097628	0.328121	1854.696167
4861.076759	0.097668	0.328121	1943.086182
4862.063107	1.070024	0.331154	515.751770
4862.064039	0.546691	0.331154	1025.267456
4862.064940	0.100305	0.331154	1115.642456
4862.065883	0.097584	0.331154	1207.664429
4862.066784	0.097548	0.331154	1295.554810
4862.067693	0.097496	0.331154	1384.178955
4862.068582	0.097540	0.331154	1470.892212
4862.069536	0.097551	0.331154	1563.956177
4862.070447	0.097537	0.331154	1652.812012
4862.071336	0.097533	0.331154	1739.518799
4862.072256	0.097515	0.331154	1829.232300
4862.073163	0.097584	0.331154	1917.741211
4863.138259	1.006644	0.326122	442.923523
4863.139225	0.567118	0.326122	990.759460
4863.140130	0.100745	0.326122	1081.933350
4863.141031	0.097526	0.326122	1169.803955
4863.141917	0.097610	0.326122	1256.286255
4863.142858	0.097672	0.326122	1348.195679
4863.143766	0.097628	0.326122	1436.842041
4863.144668	0.097628	0.326122	1524.902710
4863.145601	0.097610	0.326122	1615.972656
4863.146511	0.097599	0.326122	1704.787598
4863.147408	0.097544	0.326122	1792.284546
4863.148333	0.097537	0.326122	1882.505859
4864.134094	1.003561	0.330308	440.563171
4864.134989	0.661864	0.330308	1032.931396
4864.135936	0.101122	0.330308	1128.693726
4864.136851	0.097500	0.330308	1217.906250
4864.137748	0.097548	0.330308	1305.406494
4864.138659	0.097573	0.330308	1394.295654
4864.139583	0.097595	0.330308	1484.473633
4864.140491	0.097526	0.330308	1573.026855
4864.141384	0.097507	0.330308	1660.100952
4864.142323	0.097526	0.330308	1751.677490
4864.143225	0.097588	0.330308	1839.701782
4864.144122	0.097478	0.330308	1927.139526
4865.209294	1.023051	0.331081	454.234436
4865.210303	0.501672	0.331081	960.421814
4865.211208	0.099727	0.331081	1050.674316
4865.212096	0.097500	0.331081	1137.254272
4865.213044	0.097595	0.331081	1229.774536
4865.213943	0.097551	0.331081	1317.473145
4865.214828	0.097551	0.331081	1403.806030
4865.215755	0.097511	0.331081	1494.198730
4865.216667	0.097595	0.331081	1583.205566
4865.217576	0.097507	0.331081	1671.839722
4865.218466	0.097570	0.331081	1758.676636
4865.219406	0.097672	0.331081	1850.488403
4866.204627	1.015305	0.332157	455.872009
4866.205602	0.542970	0.332157	985.267761
4866.206513	0.100093	0.332157	1076.452271
4866.207431	0.097500	0.332157	1165.957275
4866.208320	0.097581	0.332157	1252.706421
4866.209271	0.097606	0.332157	1345.529907
4866.210174	0.097570	0.332157	1433.635254
4866.211065	0.097581	0.332157	1520.579590
4866.211990	0.097533	0.332157	1610.797607
4866.212896	0.097577	0.332157	1699.202271
4866.213800	0.097515	0.332157	1787.355469
4866.214693	0.097562	0.332157	1874.478516
4867.280852	1.012830	0.325240	449.696320
4867.281825	0.612598	0.325240	1045.753784
4867.282728	0.100269	0.325240	1136.296265
4867.283631	0.097533	0.325240	1224.368530
4867.284520	0.097584	0.325240	1311.120850
4867.285455	0.097570	0.325240	1402.348389
4867.286360	0.097650	0.325240	1490.721802
4867.287265	0.097548	0.325240	1579.002441
4867.288154	0.097606	0.325240	1665.774414
4867.289107	0.097643	0.325240	1758.828003
4867.290010	0.097628	0.325240	1846.986206
4867.290901	0.097595	0.325240	1933.943604
4868.276257	1.099574	0.333482	576.176758
4868.277169	0.521971	0.333482	1052.214722
4868.278057	0.100239	0.333482	1141.227173
4868.278994	0.097511	0.333482	1232.594971
4868.279911	0.097445	0.333482	1321.952148
4868.280817	0.097537	0.333482	1410.320312
4868.281706	0.097551	0.333482	1497.043457
4868.282655	0.097606	0.333482	1589.671753
4868.283556	0.097518	0.333482	1677.535767
4868.284444	0.097515	0.333482	1764.128784
4868.285350	0.097474	0.333482	1852.440552
4868.286270	0.097570	0.333482	1942.204590
4869.351958	1.090532	0.321583	558.352478
4869.352878	0.525861	0.321583	1042.144165
4869.353781	0.099972	0.321583	1132.418823
4869.354666	0.097375	0.321583	1218.596069
4869.355607	0.097540	0.321583	1310.381470
4869.356521	0.097533	0.321583	1399.526611
4869.357419	0.097522	0.321583	1487.101318
4869.358342	0.097566	0.321583	1577.154663
4869.359242	0.097621	0.321583	1665.013428
4869.360144	0.097526	0.321583	1752.981567
4869.361031	0.097577	0.321583	1839.532227
4869.361981	0.097603	0.321583	1932.254639
4870.347724	1.009109	0.325293	446.026123
4870.348696	0.555337	0.325293	985.813599
4870.349611	0.100166	0.325293	1077.465454
4870.350512	0.097478	0.325293	1165.293213
4870.351430	0.097511	0.325293	1254.808350
4870.352353	0.097614	0.325293	1344.905640
4870.353265	0.097518	0.325293	1433.842285
4870.354157	0.097562	0.325293	1520.867798
4870.355093	0.097588	0.325293	1612.210083
4870.355988	0.097540	0.325293	1699.508667
4870.356890	0.097515	0.325293	1787.466919
4870.357777	0.097493	0.325293	1873.942871
4871.422939	1.024307	0.330977	467.083832
4871.423837	0.637635	0.330977	1039.680542
4871.424796	0.102177	0.330977	1137.667847
4871.425695	0.097654	0.330977	1225.458618
4871.426589	0.097654	0.330977	1312.761108
4871.427478	0.097526	0.330977	1399.461426
4871.428415	0.097672	0.330977	1490.980225
4871.429321	0.097676	0.330977	1579.474487
4871.430231	0.097599	0.330977	1668.289429
4871.431151	0.097555	0.330977	1758.039917
4871.432038	0.097646	0.330977	1844.652344
4871.432984	0.097610	0.330977	1936.991211
4872.418320	1.072390	0.332463	532.977844
4872.419237	0.552766	0.332463	1039.864380
4872.420140	0.100569	0.332463	1130.678101
4872.421024	0.097577	0.332463	1216.936035
4872.421985	0.097690	0.332463	1310.816528
4872.422885	0.097595	0.332463	1398.652222
4872.423777	0.097592	0.332463	1485.703857
4872.424695	0.097562	0.332463	1575.265991
4872.425604	0.097672	0.332463	1664.049927
4872.426508	0.097555	0.332463	1752.239624
4872.427398	0.097617	0.332463	1839.118896
4872.428351	0.097698	0.332463	1932.224854
4873.493961	1.004062	0.325474	438.775269
4873.494922	0.630132	0.325474	1044.332031
4873.495838	0.100613	0.325474	1136.493408
4873.496739	0.097548	0.325474	1224.383789
4873.497630	0.097434	0.325474	1311.197510
4873.498561	0.097570	0.325474	1402.034790
4873.499470	0.097551	0.325474	1490.708862
4873.500367	0.097496	0.325474	1578.163086
4873.501295	0.097526	0.325474	1668.666870
4873.502213	0.097522	0.325474	1758.192017
4873.503118	0.097500	0.325474	1846.429565
4873.504007	0.097599	0.325474	1933.194946
4874.490323	1.011317	0.336951	450.036133
4874.491223	0.653079	0.336951	1037.806885
4874.492181	0.101895	0.336951	1135.421875
4874.493087	0.097504	0.336951	1223.760254
4874.494007	0.097581	0.336951	1313.534424
4874.494898	0.097610	0.336951	1400.504761
4874.495849	0.097533	0.336951	1493.258545
4874.496749	0.097485	0.336951	1580.995361
4874.497639	0.097599	0.336951	1667.858398
4874.498559	0.097562	0.336951	1757.615723
4874.499480	0.097529	0.336951	1847.440186
4874.500384	0.097533	0.336951	1935.609985
4875.565013	1.019117	0.328793	456.564575
4875.565942	0.612136	0.328793	1025.239136
4875.566841	0.101477	0.328793	1116.467041
4875.567778	0.097643	0.328793	1207.958374
4875.568676	0.097661	0.328793	1295.658081
4875.569572	0.097592	0.328793	1383.100098
4875.570460	0.097566	0.328793	1469.738647
4875.571395	0.097636	0.328793	1561.027832
4875.572296	0.097610	0.328793	1648.974365
4875.573200	0.097625	0.328793	1737.226929
4875.574089	0.097617	0.328793	1824.008545
4875.575032	0.097581	0.328793	1916.026978
4876.561367	1.015620	0.330522	447.888458
4876.562293	0.624910	0.330522	1026.554810
4876.563193	0.101532	0.330522	1117.933594
4876.564125	0.097606	0.330522	1208.902588
4876.565053	0.097742	0.330522	1299.606934
4876.565961	0.097522	0.330522	1388.156860
4876.566856	0.097621	0.330522	1475.527466
4876.567791	0.097665	0.330522	1566.843994
4876.568689	0.097665	0.330522	1654.546997
4876.569583	0.097533	0.330522	1741.741455
4876.570475	0.097632	0.330522	1828.829102
4876.571409	0.097632	0.330522	1920.017212
4877.636060	1.019637	0.332943	459.856506
4877.636966	0.631937	0.332943	1032.391602
4877.637856	0.102224	0.332943	1123.371094
4877.638811	0.097614	0.332943	1216.592041
4877.639720	0.097614	0.332943	1305.322754
4877.640613	0.097712	0.332943	1392.579956
4877.641525	0.097705	0.332943	1481.687012
4877.642453	0.097709	0.332943	1572.360718
4877.643352	0.097701	0.332943	1660.194336
4877.644241	0.097672	0.332943	1747.024902
4877.645177	0.097687	0.332943	1838.459717
4877.646088	0.097657	0.332943	1927.425659
4878.632409	1.021751	0.335001	459.787750
4878.633307	0.645992	0.335001	1039.889038
4878.634252	0.101715	0.335001	1136.009766
4878.635163	0.097628	0.335001	1224.948975
4878.636068	0.097595	0.335001	1313.272705
4878.636960	0.097625	0.335001	1400.353760
4878.637926	0.097712	0.335001	1494.743896
4878.638829	0.097665	0.335001	1582.935181
4878.639723	0.097654	0.335001	1670.237671
4878.640652	0.097639	0.335001	1760.944458
4878.641556	0.097683	0.335001	1849.250000
4878.642460	0.097610	0.335001	1937.489258
4879.707626	1.038248	0.331964	476.555969
4879.708559	0.579144	0.331964	1016.897583
4879.709457	0.100986	0.331964	1107.583252
4879.710347	0.097507	0.331964	1194.364746
4879.711303	0.097646	0.331964	1287.714844
4879.712204	0.097540	0.331964	1375.598633
4879.713102	0.097595	0.331964	1463.239136
4879.714033	0.097588	0.331964	1554.093506
4879.714943	0.097665	0.331964	1642.968506
4879.715847	0.097577	0.331964	1731.177979
4879.716735	0.097551	0.331964	1817.803467
4879.717683	0.097584	0.331964	1910.313354
4880.704525	1.068168	0.332060	539.424683
4880.705441	0.543977	0.332060	1037.707642
4880.706346	0.100192	0.332060	1128.381104
4880.707233	0.097515	0.332060	1214.876587
4880.708189	0.097544	0.332060	1308.128540
4880.709085	0.097625	0.332060	1395.600098
4880.709977	0.097577	0.332060	1482.638672
4880.710909	0.097581	0.332060	1573.583740
4880.711811	0.097562	0.332060	1661.584961
4880.712709	0.097518	0.332060	1749.156372
4880.713598	0.097540	0.332060	1835.869629
4880.714540	0.097566	0.332060	1927.776733
4881.778654	1.024010	0.326606	462.852509
4881.779560	0.634534	0.326606	1037.739990
4881.780511	0.101711	0.326606	1134.467529
4881.781417	0.097518	0.326606	1222.819092
4881.782316	0.097551	0.326606	1310.517700
4881.783201	0.097599	0.326606	1396.892700
4881.784130	0.097555	0.326606	1487.521240
4881.785032	0.097507	0.326606	1575.472900
4881.785935	0.097555	0.326606	1663.564941
4881.786825	0.097559	0.326606	1750.392090
4881.787784	0.097643	0.326606	1844.031494
4881.788687	0.097522	0.326606	1932.093872
4882.775514	1.012756	0.326763	453.714844
4882.776414	0.646578	0.326763	1035.635376
4882.777362	0.100847	0.326763	1131.238525
4882.778266	0.097489	0.326763	1219.368652
4882.779172	0.097701	0.326763	1307.886108
4882.780067	0.097551	0.326763	1395.194458
4882.781011	0.097603	0.326763	1487.331299
4882.781927	0.097625	0.326763	1576.755371
4882.782828	0.097562	0.326763	1664.658936
4882.783767	0.097614	0.326763	1756.317993
4882.784667	0.097654	0.326763	1844.206421
4882.785568	0.097606	0.326763	1932.149658
4883.849680	1.012050	0.327802	451.374115
4883.850579	0.651174	0.327802	1036.779785
4883.851558	0.100419	0.327802	1135.089722
4883.852454	0.097507	0.327802	1222.456299
4883.853340	0.097595	0.327802	1308.925659
4883.854294	0.097581	0.327802	1402.017578
4883.855205	0.097511	0.327802	1490.850098
4883.856096	0.097570	0.327802	1577.784546
4883.856981	0.097581	0.327802	1664.143311
4883.857931	0.097665	0.327802	1756.924805
4883.858835	0.097577	0.327802	1845.134277
4883.859728	0.097636	0.327802	1932.322754
4884.847090	1.052695	0.333349	496.872162
4884.848017	0.569359	0.333349	1024.668091
4884.848922	0.100686	0.333349	1115.788940
4884.849809	0.097445	0.333349	1202.222656
4884.850758	0.097650	0.333349	1294.892700
4884.851666	0.097639	0.333349	1383.549072
4884.852561	0.097621	0.333349	1470.919678
4884.853506	0.097643	0.333349	1563.192139
4884.854406	0.097712	0.333349	1651.133301
4884.855306	0.097636	0.333349	1739.005249
4884.856193	0.097595	0.333349	1825.572266
4884.857131	0.097592	0.333349	1917.113159
4885.919695	1.021381	0.332512	452.471619
4885.920676	0.540029	0.332512	982.240356
4885.921591	0.100151	0.332512	1073.878906
4885.922490	0.097482	0.332512	1161.514893
4885.923423	0.097621	0.332512	1252.595093
4885.924325	0.097614	0.332512	1340.642456
4885.925220	0.097570	0.332512	1427.967285
4885.926107	0.097592	0.332512	1514.531006
4885.927040	0.097628	0.332512	1605.618042
4885.927941	0.097592	0.332512	1693.547974
4885.928843	0.097540	0.332512	1781.529297
4885.929731	0.097610	0.332512	1868.206909
4886.918633	1.031213	0.335565	477.451813
4886.919530	0.623584	0.335565	1036.806641
4886.920484	0.101385	0.335565	1133.528442
4886.921396	0.097496	0.335565	1222.445068
4886.922285	0.097533	0.335565	1309.151855
4886.923210	0.097471	0.335565	1399.312256
4886.924116	0.097551	0.335565	1487.693726
4886.925018	0.097518	0.335565	1575.655273
4886.925908	0.097511	0.335565	1662.440063
4886.926853	0.097650	0.335565	1754.719482
4886.927742	0.097540	0.335565	1841.432739
4886.928639	0.097485	0.335565	1928.877075
4887.991759	1.007695	0.328044	445.401337
4887.992653	0.659813	0.328044	1035.274414
4887.993610	0.100953	0.328044	1131.886841
4887.994517	0.097537	0.328044	1220.352539
4887.995412	0.097559	0.328044	1307.667480
4887.996330	0.097610	0.328044	1397.273315
4887.997244	0.097617	0.328044	1486.495361
4887.998156	0.097555	0.328044	1575.465454
4887.999050	0.097566	0.328044	1662.689331
4887.999978	0.097588	0.328044	1753.250854
4888.000884	0.097559	0.328044	1841.638916
4888.001789	0.097573	0.328044	1929.942749
4888.990179	1.034359	0.327645	468.564728
4888.991107	0.600414	0.327645	1025.748779
4888.992006	0.101228	0.327645	1116.752808
4888.992943	0.097566	0.327645	1208.172119
4888.993857	0.097599	0.327645	1297.377441
4888.994764	0.097548	0.327645	1385.853149
4888.995657	0.097573	0.327645	1472.986084
4888.996598	0.097625	0.327645	1564.850708
4888.997499	0.097636	0.327645	1652.820312
4888.998395	0.097610	0.327645	1740.278809
4888.999287	0.097573	0.327645	1827.314087
4889.000221	0.097628	0.327645	1918.498779
4890.062800	1.013529	0.328322	451.020447
4890.063763	0.567722	0.328322	997.736877
4890.064668	0.100620	0.328322	1088.798096
4890.065590	0.097548	0.328322	1178.736938
4890.066486	0.097595	0.328322	1266.182251
4890.067426	0.097632	0.328322	1357.956177
4890.068327	0.097661	0.328322	1445.948853
4890.069216	0.097555	0.328322	1532.675171
4890.070152	0.097636	0.328322	1624.062012
4890.071053	0.097592	0.328322	1711.991943
4890.071953	0.097573	0.328322	1799.807861
4890.072844	0.097628	0.328322	1886.794556
4891.061217	1.033674	0.331307	471.355469
4891.062129	0.618007	0.331307	1034.977539
4891.063020	0.101931	0.331307	1125.798218
4891.063975	0.097588	0.331307	1218.994629
4891.064886	0.097573	0.331307	1307.883789
4891.065806	0.097657	0.331307	1397.728638
4891.066696	0.097712	0.331307	1484.692627
4891.067650	0.097636	0.331307	1577.836914
4891.068543	0.097687	0.331307	1665.071167
4891.069433	0.097650	0.331307	1751.979736
4891.070366	0.097734	0.331307	1843.165894
4891.071266	0.097679	0.331307	1931.077393
4892.133844	1.021091	0.331404	453.364563
4892.134753	0.635446	0.331404	1030.984619
4892.135639	0.102502	0.331404	1121.801758
4892.136611	0.097610	0.331404	1216.678589
4892.137518	0.097632	0.331404	1305.230713
4892.138411	0.097573	0.331404	1392.363647
4892.139338	0.097603	0.331404	1482.841187
4892.140241	0.097650	0.331404	1571.019287
4892.141134	0.097573	0.331404	1658.152222
4892.142017	0.097566	0.331404	1744.302979
4892.142952	0.097712	0.331404	1835.664062
4892.143861	0.097639	0.331404	1924.418091
4893.132800	1.063718	0.334417	523.349365
4893.133725	0.546552	0.334417	1028.909546
4893.134625	0.100433	0.334417	1119.299561
4893.135511	0.097562	0.334417	1205.739746
4893.136459	0.097639	0.334417	1298.301636
4893.137362	0.097570	0.334417	1386.406982
4893.138250	0.097617	0.334417	1473.091064
4893.139169	0.097555	0.334417	1562.744019
4893.140080	0.097625	0.334417	1651.679932
4893.140988	0.097540	0.334417	1740.246460
4893.141889	0.097588	0.334417	1828.173096
4893.142823	0.097690	0.334417	1919.416016
4894.204890	1.016689	0.332568	456.493561
4894.205788	0.648369	0.332568	1038.729004
4894.206728	0.102422	0.332568	1135.005615
4894.207641	0.097540	0.332568	1224.059937
4894.208554	0.097500	0.332568	1313.077393
4894.209454	0.097515	0.332568	1400.840576
4894.210397	0.097614	0.332568	1492.890137
4894.211310	0.097504	0.332568	1581.911011
4894.212231	0.097559	0.332568	1671.762451
4894.213118	0.097632	0.332568	1758.361938
4894.214061	0.097588	0.332568	1850.387329
4894.214953	0.097555	0.332568	1937.406372
4895.203797	1.019971	0.332366	460.006805
4895.204705	0.629579	0.332366	1031.664429
4895.205641	0.102048	0.332366	1127.181641
4895.206548	0.097511	0.332366	1215.624146
4895.207454	0.097500	0.332366	1303.959106
4895.208346	0.097555	0.332366	1390.978149
4895.209284	0.097581	0.332366	1482.508667
4895.210180	0.097588	0.332366	1569.947388
4895.211085	0.097449	0.332366	1658.138428
4895.211974	0.097482	0.332366	1744.799683
4895.212926	0.097632	0.332366	1837.745239
4895.213830	0.097559	0.332366	1925.938232
4896.276434	1.016895	0.330965	453.534973
4896.277365	0.616300	0.330965	1027.310303
4896.278265	0.101737	0.330965	1118.873657
4896.279219	0.097526	0.330965	1211.913086
4896.280122	0.097614	0.330965	1300.058105
4896.281024	0.097636	0.330965	1388.125366
4896.281909	0.097614	0.330965	1474.513306
4896.282842	0.097690	0.330965	1565.658447
4896.283756	0.097533	0.330965	1654.803589
4896.284653	0.097617	0.330965	1742.366211
4896.285589	0.097544	0.330965	1833.667358
4896.286493	0.097617	0.330965	1921.913330
4897.275382	1.028833	0.334973	496.926300
4897.276319	0.554773	0.334973	1016.748535
4897.277238	0.100316	0.334973	1108.939087
4897.278128	0.097537	0.334973	1195.746704
4897.279060	0.097679	0.334973	1286.783936
4897.279965	0.097646	0.334973	1375.154053
4897.280868	0.097636	0.334973	1463.318848
4897.281759	0.097646	0.334973	1550.321899
4897.282698	0.097679	0.334973	1642.042847
4897.283599	0.097606	0.334973	1729.986084
4897.284492	0.097636	0.334973	1817.174561
4897.285411	0.097690	0.334973	1906.952026
4898.347482	1.015529	0.337386	453.941254
4898.348385	0.644722	0.337386	1036.124878
4898.349272	0.102671	0.337386	1127.193970
4898.350242	0.097570	0.337386	1221.836426
4898.351145	0.097559	0.337386	1309.931885
4898.352037	0.097584	0.337386	1396.977051
4898.352994	0.097625	0.337386	1490.403687
4898.353895	0.097548	0.337386	1578.294067
4898.354780	0.097625	0.337386	1664.691772
4898.355695	0.097544	0.337386	1753.944458
4898.356623	0.097639	0.337386	1844.553589
4898.357529	0.097548	0.337386	1932.931763
4899.346400	1.031217	0.339408	467.141296
4899.347304	0.633644	0.339408	1039.955322
4899.348191	0.102319	0.339408	1130.712524
4899.349141	0.097570	0.339408	1223.403564
4899.350047	0.097657	0.339408	1311.881226
4899.350938	0.097687	0.339408	1398.920166
4899.351862	0.097599	0.339408	1489.101562
4899.352776	0.097628	0.339408	1578.333740
4899.353684	0.097639	0.339408	1666.990112
4899.354581	0.097573	0.339408	1754.513306
4899.355471	0.097566	0.339408	1841.346924
4899.356416	0.097610	0.339408	1933.588257
4900.419042	1.031953	0.327327	469.538666
4900.419969	0.601512	0.327327	1027.140747
4900.420866	0.101257	0.327327	1117.968506
4900.421801	0.097518	0.327327	1209.148071
4900.422707	0.097595	0.327327	1297.569336
4900.423616	0.097562	0.327327	1386.253418
4900.424512	0.097482	0.327327	1473.597046
4900.425440	0.097555	0.327327	1564.128052
4900.426354	0.097416	0.327327	1653.166016
4900.427262	0.097500	0.327327	1741.696045
4900.428149	0.097522	0.327327	1828.197998
4900.429098	0.097529	0.327327	1920.753296
4901.417418	1.004927	0.332818	442.167725
4901.418311	0.664065	0.332818	1035.177734
4901.419280	0.100796	0.332818	1132.848999
4901.420190	0.097478	0.332818	1221.553955
4901.421081	0.097716	0.332818	1308.619019
4901.422025	0.097610	0.332818	1400.762695
4901.422920	0.097526	0.332818	1488.048096
4901.423821	0.097526	0.332818	1575.918701
4901.424713	0.097544	0.332818	1662.927856
4901.425668	0.097617	0.332818	1756.152222
4901.426573	0.097471	0.332818	1844.363159
4901.427475	0.097474	0.332818	1932.285034
4902.489057	1.026892	0.333817	460.047638
4902.489996	0.597301	0.333817	1020.913330
4902.490887	0.101459	0.333817	1111.313110
4902.491835	0.097533	0.333817	1203.774414
4902.492739	0.097603	0.333817	1292.007080
4902.493633	0.097529	0.333817	1379.198242
4902.494520	0.097537	0.333817	1465.713257
4902.495445	0.097628	0.333817	1556.019287
4902.496351	0.097577	0.333817	1644.423950
4902.497247	0.097504	0.333817	1731.787231
4902.498156	0.097581	0.333817	1820.487915
4902.499076	0.097628	0.333817	1910.305786
4903.488510	1.069625	0.335009	524.116394
4903.489444	0.533049	0.335009	1021.984497
4903.490351	0.099998	0.335009	1112.682251
4903.491239	0.097485	0.335009	1199.249268
4903.492189	0.097606	0.335009	1291.975098
4903.493101	0.097522	0.335009	1380.915161
4903.493991	0.097485	0.335009	1467.677124
4903.494920	0.097544	0.335009	1558.295410
4903.495824	0.097617	0.335009	1646.541382
4903.496723	0.097485	0.335009	1734.180664
4903.497611	0.097529	0.335009	1820.786621
4903.498547	0.097577	0.335009	1912.118652
4904.561111	1.019147	0.334920	457.596924
4904.562009	0.629982	0.334920	1023.320496
4904.562997	0.100199	0.334920	1122.317139
4904.563898	0.097390	0.334920	1210.065674
4904.564787	0.097599	0.334920	1296.831055
4904.565743	0.097584	0.334920	1390.121582
4904.566640	0.097511	0.334920	1477.588989
4904.567549	0.097570	0.334920	1566.279785
4904.568446	0.097544	0.334920	1653.776733
4904.569382	0.097559	0.334920	1745.091553
4904.570290	0.097548	0.334920	1833.664795
4904.571178	0.097482	0.334920	1920.228516
4905.560019	1.012061	0.335851	451.378998
4905.560917	0.650343	0.335851	1035.386963
4905.561879	0.101144	0.335851	1132.687256
4905.562784	0.097533	0.335851	1220.954590
4905.563686	0.097603	0.335851	1308.992065
4905.564611	0.097661	0.335851	1399.328613
4905.565521	0.097636	0.335851	1488.176880
4905.566432	0.097566	0.335851	1577.059448
4905.567332	0.097657	0.335851	1664.951172
4905.568283	0.097614	0.335851	1757.781616
4905.569183	0.097705	0.335851	1845.716187
4905.570085	0.097610	0.335851	1933.760254
4906.632666	1.014976	0.329079	457.754028
4906.633562	0.648582	0.329079	1038.883057
4906.634501	0.102510	0.329079	1135.139771
4906.635412	0.097577	0.329079	1224.032349
4906.636323	0.097467	0.329079	1312.824829
4906.637222	0.097592	0.329079	1400.559570
4906.638151	0.097551	0.329079	1491.184692
4906.639055	0.097614	0.329079	1579.427368
4906.639958	0.097533	0.329079	1667.499634
4906.640845	0.097551	0.329079	1754.027588
4906.641785	0.097577	0.329079	1845.749878
4906.642690	0.097555	0.329079	1934.037109
4907.630539	1.008197	0.336177	442.598511
4907.631483	0.635387	0.336177	1042.403809
4907.632404	0.100682	0.336177	1135.132324
4907.633315	0.097533	0.336177	1223.984863
4907.634207	0.097606	0.336177	1311.049561
4907.635153	0.097639	0.336177	1403.416260
4907.636059	0.097621	0.336177	1491.860718
4907.636955	0.097636	0.336177	1579.342163
4907.637842	0.097595	0.336177	1665.909180
4907.638781	0.097570	0.336177	1757.526978
4907.639687	0.097625	0.336177	1845.974731
4907.640574	0.097632	0.336177	1932.574219
4908.704247	1.029184	0.333394	494.008545
4908.705189	0.536451	0.333394	999.345764
4908.706101	0.100078	0.333394	1090.617065
4908.706998	0.097559	0.333394	1178.127075
4908.707928	0.097548	0.333394	1268.846313
4908.708831	0.097581	0.333394	1356.961548
4908.709732	0.097555	0.333394	1444.858521
4908.710622	0.097617	0.333394	1531.737793
4908.711565	0.097720	0.333394	1623.887451
4908.712463	0.097643	0.333394	1711.570679
4908.713361	0.097599	0.333394	1799.214478
4908.714290	0.097551	0.333394	1889.839600
4909.701596	1.025973	0.333132	456.557983
4909.702532	0.598187	0.333132	1016.461182
4909.703432	0.101056	0.333132	1107.411499
4909.704371	0.097507	0.333132	1198.970825
4909.705277	0.097668	0.333132	1287.458496
4909.706180	0.097562	0.333132	1375.557251
4909.707066	0.097570	0.333132	1462.003906
4909.708022	0.097610	0.333132	1555.318970
4909.708919	0.097595	0.333132	1642.861816
4909.709817	0.097603	0.333132	1730.508911
4909.710708	0.097573	0.333132	1817.446655
4909.711641	0.097606	0.333132	1908.513184
4910.775303	1.078956	0.338079	538.399231
4910.776227	0.538129	0.338079	1035.630127
4910.777145	0.099877	0.338079	1127.316895
4910.778045	0.097551	0.338079	1215.113037
4910.779000	0.097636	0.338079	1308.354980
4910.779906	0.097636	0.338079	1396.812744
4910.780797	0.097588	0.338079	1483.763550
4910.781736	0.097698	0.338079	1575.501709
4910.782652	0.097588	0.338079	1664.892212
4910.783571	0.097603	0.338079	1754.588989
4910.784459	0.097595	0.338079	1841.253540
4910.785390	0.097632	0.338079	1932.148804
4911.772631	1.007523	0.338445	451.370392
4911.773526	0.650629	0.338445	1033.682983
4911.774470	0.100869	0.338445	1128.903442
4911.775376	0.097526	0.338445	1217.261719
4911.776282	0.097668	0.338445	1305.749390
4911.777170	0.097661	0.338445	1392.472412
4911.778123	0.097712	0.338445	1485.592285
4911.779027	0.097548	0.338445	1573.775269
4911.779919	0.097603	0.338445	1660.836670
4911.780871	0.097540	0.338445	1753.695068
4911.781778	0.097617	0.338445	1842.233887
4911.782677	0.097581	0.338445	1929.958862
4912.846793	1.004315	0.330582	441.898651
4912.847787	0.523744	0.330582	962.500122
4912.848697	0.100009	0.330582	1053.507935
4912.849592	0.097606	0.330582	1140.865479
4912.850514	0.097753	0.330582	1230.993408
4912.851419	0.097661	0.330582	1319.376709
4912.852323	0.097529	0.330582	1407.543213
4912.853217	0.097668	0.330582	1494.858765
4912.854147	0.097668	0.330582	1585.690430
4912.855048	0.097676	0.330582	1673.696289
4912.855946	0.097595	0.330582	1761.336792
4912.856835	0.097625	0.330582	1848.125000
4913.843656	1.002089	0.333676	437.912689
4913.844608	0.628689	0.333676	1036.424561
4913.845541	0.100254	0.333676	1129.961426
4913.846443	0.097540	0.333676	1217.942749
4913.847337	0.097687	0.333676	1305.274658
4913.848263	0.097683	0.333676	1395.729248
4913.849170	0.097650	0.333676	1484.297974
4913.850064	0.097639	0.333676	1571.587402
4913.851002	0.097665	0.333676	1663.197021
4913.851910	0.097712	0.333676	1751.919922
4913.852805	0.097584	0.333676	1839.257812
4913.853693	0.097698	0.333676	1926.013428
4914.918364	1.022241	0.331528	461.030792
4914.919265	0.636493	0.331528	1034.510864
4914.920158	0.102323	0.331528	1125.885254
4914.921130	0.097562	0.331528	1220.715820
4914.922043	0.097544	0.331528	1309.773437
4914.922945	0.097548	0.331528	1397.761353
4914.923883	0.097603	0.331528	1489.312500
4914.924788	0.097617	0.331528	1577.656006
4914.925690	0.097581	0.331528	1665.673706
4914.926581	0.097515	0.331528	1752.559204
4914.927526	0.097687	0.331528	1844.873169
4914.928434	0.097614	0.331528	1933.506226
4915.913747	1.061375	0.339194	545.546509
4915.914677	0.522367	0.339194	1031.347778
4915.915574	0.099972	0.339194	1121.022583
4915.916458	0.097471	0.339194	1207.186646
4915.917406	0.097628	0.339194	1299.738159
4915.918308	0.097573	0.339194	1387.749268
4915.919216	0.097551	0.339194	1476.325806
4915.920124	0.097551	0.339194	1564.902344
4915.921047	0.097705	0.339194	1655.084106
4915.921948	0.097603	0.339194	1743.024048
4915.922841	0.097628	0.339194	1830.206055
4915.923776	0.097639	0.339194	1921.498657
4916.989896	1.014020	0.333261	445.154724
4916.990878	0.542465	0.333261	977.854919
4916.991792	0.100184	0.333261	1069.423340
4916.992690	0.097522	0.333261	1156.998047
4916.993612	0.097687	0.333261	1247.065186
4916.994499	0.097636	0.333261	1333.667847
4916.995447	0.097628	0.333261	1426.219360
4916.996369	0.097584	0.333261	1516.192017
4916.997255	0.097566	0.333261	1602.635376
4916.998190	0.097643	0.333261	1693.931396
4916.999094	0.097559	0.333261	1782.124390
4916.999983	0.097577	0.333261	1868.870239
4917.985750	1.012588	0.338510	450.601624
4917.986695	0.622247	0.338510	1038.625244
4917.987609	0.100811	0.338510	1130.766113
4917.988521	0.097471	0.338510	1219.659424
4917.989413	0.097625	0.338510	1306.740479
4917.990351	0.097778	0.338510	1398.456543
4917.991262	0.097709	0.338510	1487.469238
4917.992166	0.097672	0.338510	1575.764893
4917.993053	0.097599	0.338510	1662.335083
4917.994013	0.097679	0.338510	1756.107300
4917.994914	0.097636	0.338510	1844.076904
4917.995803	0.097628	0.338510	1930.868408
4919.061485	1.040457	0.327694	487.974121
4919.062395	0.602985	0.327694	1036.690186
4919.063281	0.101653	0.327694	1126.754639
4919.064223	0.097643	0.327694	1218.734131
4919.065128	0.097603	0.327694	1307.064453
4919.066019	0.097544	0.327694	1393.976074
4919.066926	0.097566	0.327694	1482.468384
4919.067864	0.097584	0.327694	1574.002441
4919.068770	0.097639	0.327694	1662.463501
4919.069656	0.097581	0.327694	1748.919922
4919.070593	0.097654	0.327694	1840.421509
4919.071495	0.097614	0.327694	1928.468872
4920.056860	1.091777	0.338550	567.724182
4920.057782	0.514783	0.338550	1042.353882
4920.058683	0.099910	0.338550	1132.372437
4920.059570	0.097577	0.338550	1218.923096
4920.060504	0.097804	0.338550	1310.271973
4920.061411	0.097588	0.338550	1398.784180
4920.062313	0.097621	0.338550	1486.838135
4920.063246	0.097709	0.338550	1578.000366
4920.064152	0.097698	0.338550	1666.514526
4920.065052	0.097690	0.338550	1754.435913
4920.065977	0.097668	0.338550	1844.779297
4920.066867	0.097617	0.338550	1931.658569
4921.132495	1.009720	0.328580	447.306152
4921.133478	0.544526	0.328580	982.575562
4921.134374	0.100353	0.328580	1072.491699
4921.135270	0.097522	0.328580	1159.871338
4921.136162	0.097540	0.328580	1246.877319
4921.137108	0.097625	0.328580	1339.230103
4921.138016	0.097537	0.328580	1427.793335
4921.138913	0.097570	0.328580	1515.313232
4921.139851	0.097639	0.328580	1606.898804
4921.140758	0.097632	0.328580	1695.450928
4921.141660	0.097577	0.328580	1783.465332
4921.142549	0.097639	0.328580	1870.266602
4922.128343	1.012504	0.338856	453.601624
4922.129246	0.638196	0.338856	1029.892456
4922.130183	0.102129	0.338856	1125.587280
4922.131095	0.097643	0.338856	1214.637573
4922.132004	0.097625	0.338856	1303.378296
4922.132930	0.097665	0.338856	1393.815918
4922.133837	0.097676	0.338856	1482.407837
4922.134749	0.097584	0.338856	1571.404663
4922.135639	0.097570	0.338856	1658.241577
4922.136569	0.097643	0.338856	1749.049438
4922.137473	0.097573	0.338856	1837.255615
4922.138379	0.097588	0.338856	1925.670288
4923.204056	1.021597	0.329986	454.610504
4923.204969	0.630732	0.329986	1030.469238
4923.205856	0.102228	0.329986	1121.145264
4923.206828	0.097573	0.329986	1215.986450
4923.207737	0.097614	0.329986	1304.717163
4923.208634	0.097544	0.329986	1392.214111
4923.209563	0.097555	0.329986	1482.842651
4923.210457	0.097639	0.329986	1570.132080
4923.211365	0.097555	0.329986	1658.711914
4923.212254	0.097595	0.329986	1745.474121
4923.213191	0.097628	0.329986	1836.951660
4923.214095	0.097617	0.329986	1925.197632
4924.199425	1.028870	0.336508	508.261597
4924.200358	0.533580	0.336508	1006.092041
4924.201259	0.100243	0.336508	1096.410889
4924.202151	0.097617	0.336508	1183.485474
4924.203082	0.097705	0.336508	1274.448853
4924.203990	0.097745	0.336508	1363.201660
4924.204892	0.097650	0.336508	1451.282104
4924.205782	0.097661	0.336508	1538.200562
4924.206735	0.097727	0.336508	1631.334473
4924.207643	0.097672	0.336508	1720.020752
4924.208535	0.097632	0.336508	1807.108398
4924.209464	0.097665	0.336508	1897.838989
4925.275606	1.016228	0.329079	451.205200
4925.276590	0.540758	0.329079	983.311157
4925.277500	0.100287	0.329079	1074.572266
4925.278392	0.097544	0.329079	1161.581421
4925.279318	0.097632	0.329079	1251.988525
4925.280224	0.097621	0.329079	1340.432983
4925.281125	0.097595	0.329079	1428.366211
4925.282025	0.097632	0.329079	1516.234863
4925.282956	0.097628	0.329079	1607.126709
4925.283864	0.097621	0.329079	1695.766479
4925.284769	0.097646	0.329079	1784.136597
4925.285686	0.097610	0.329079	1873.644897
4926.270432	1.028613	0.341172	472.133514
4926.271339	0.620501	0.341172	1034.927490
4926.272227	0.102136	0.341172	1125.624512
4926.273174	0.097570	0.341172	1218.022949
4926.274085	0.097668	0.341172	1306.998901
4926.274990	0.097551	0.341172	1395.282837
4926.275917	0.097614	0.341172	1485.770508
4926.276824	0.097625	0.341172	1574.315918
4926.277726	0.097610	0.341172	1662.359985
4926.278613	0.097573	0.341172	1748.907471
4926.279556	0.097592	0.341172	1840.936279
4926.280459	0.097621	0.341172	1929.087891
4927.347155	1.014437	0.329667	451.424561
4927.348057	0.647809	0.329667	1035.748169
4927.348957	0.102667	0.329667	1128.148682
4927.349922	0.097566	0.329667	1222.299805
4927.350830	0.097628	0.329667	1310.946167
4927.351726	0.097643	0.329667	1398.434082
4927.352670	0.097760	0.329667	1490.719482
4927.353579	0.097698	0.329667	1579.526733
4927.354482	0.097628	0.329667	1667.684937
4927.355369	0.097639	0.329667	1754.290894
4927.356307	0.097756	0.329667	1845.986328
4927.357213	0.097654	0.329667	1934.460693
4928.341488	1.026259	0.336214	488.499084
4928.342392	0.605482	0.336214	1035.854980
4928.343324	0.101543	0.336214	1130.493042
4928.344232	0.097562	0.336214	1219.079590
4928.345150	0.097625	0.336214	1308.698853
4928.346048	0.097588	0.336214	1396.332764
4928.346985	0.097621	0.336214	1487.803467
4928.347898	0.097643	0.336214	1576.951416
4928.348819	0.097544	0.336214	1666.789429
4928.349709	0.097636	0.336214	1753.685059
4928.350665	0.097610	0.336214	1847.000122
4928.351559	0.097712	0.336214	1934.354980
4929.418188	1.005319	0.333208	440.329559
4929.419161	0.580616	0.333208	1005.269287
4929.420065	0.100616	0.333208	1096.226562
4929.420962	0.097610	0.333208	1183.782593
4929.421852	0.097665	0.333208	1270.704224
4929.422779	0.097617	0.333208	1361.195312
4929.423688	0.097632	0.333208	1449.942627
4929.424584	0.097621	0.333208	1537.410889
4929.425501	0.097621	0.333208	1626.929199
4929.426427	0.097694	0.333208	1717.393921
4929.427328	0.097639	0.333208	1805.366821
4929.428221	0.097628	0.333208	1892.548828
4930.412557	1.064865	0.339412	514.329590
4930.413480	0.567653	0.339412	1038.272949
4930.414376	0.100767	0.339412	1128.559814
4930.415263	0.097566	0.339412	1215.100830
4930.416196	0.097694	0.339412	1306.249390
4930.417106	0.097562	0.339412	1395.031006
4930.418004	0.097606	0.339412	1482.681396
4930.418924	0.097694	0.339412	1572.559937
4930.419832	0.097639	0.339412	1661.216309
4930.420730	0.097643	0.339412	1748.899536
4930.421620	0.097592	0.339412	1835.755981
4930.422577	0.097646	0.339412	1929.203613
4931.489240	1.028668	0.332084	461.872070
4931.490223	0.539099	0.332084	991.806519
4931.491118	0.100221	0.332084	1081.504272
4931.492008	0.097588	0.332084	1168.357544
4931.492941	0.097581	0.332084	1259.400269
4931.493856	0.097584	0.332084	1348.689819
4931.494763	0.097599	0.332084	1437.212036
4931.495654	0.097650	0.332084	1524.218262
4931.496586	0.097672	0.332084	1615.248657
4931.497495	0.097617	0.332084	1703.982666
4931.498410	0.097632	0.332084	1793.315796
4931.499298	0.097636	0.332084	1880.016113
4932.484045	1.006055	0.341636	442.664032
4932.484944	0.648398	0.341636	1025.574219
4932.485902	0.100858	0.341636	1122.196289
4932.486816	0.097654	0.341636	1211.451904
4932.487723	0.097734	0.341636	1300.096924
4932.488659	0.097745	0.341636	1391.586548
4932.489555	0.097789	0.341636	1479.205811
4932.490453	0.097676	0.341636	1566.918701
4932.491340	0.097705	0.341636	1653.583130
4932.492282	0.097734	0.341636	1745.648926
4932.493174	0.097701	0.341636	1832.798584
4932.494075	0.097694	0.341636	1920.820923
4933.560781	1.004370	0.330529	437.905365
4933.561682	0.644758	0.330529	1018.832520
4933.562650	0.100763	0.330529	1116.371094
4933.563562	0.097544	0.330529	1205.331177
4933.564461	0.097584	0.330529	1293.059448
4933.565398	0.097701	0.330529	1384.605713
4933.566299	0.097709	0.330529	1472.641235
4933.567196	0.097617	0.330529	1560.203857
4933.568083	0.097621	0.330529	1646.793579
4933.569024	0.097716	0.330529	1738.744385
4933.569923	0.097672	0.330529	1826.551636
4933.570821	0.097657	0.330529	1914.248047
4934.555088	1.012705	0.341285	446.602905
4934.556068	0.537330	0.341285	973.186646
4934.556978	0.100181	0.341285	1064.351074
4934.557869	0.097460	0.341285	1151.187744
4934.558802	0.097526	0.341285	1242.179199
4934.559718	0.097526	0.341285	1331.512695
4934.560624	0.097485	0.341285	1419.834473
4934.561512	0.097566	0.341285	1506.473022
4934.562460	0.097533	0.341285	1598.934326
4934.563369	0.097456	0.341285	1687.521851
4934.564262	0.097445	0.341285	1774.540283
4934.565193	0.097603	0.341285	1865.408203
4935.630791	1.004850	0.328963	440.124268
4935.631754	0.601813	0.328963	1019.669983
4935.632666	0.100474	0.328963	1111.302002
4935.633570	0.097584	0.328963	1199.518188
4935.634459	0.097540	0.328963	1286.231445
4935.635428	0.097668	0.328963	1380.872192
4935.636332	0.097562	0.328963	1469.068481
4935.637234	0.097628	0.328963	1557.129150
4935.638134	0.097588	0.328963	1644.958252
4935.639060	0.097654	0.328963	1735.385620
4935.639964	0.097588	0.328963	1823.605103
4935.640852	0.097614	0.328963	1910.285889
4936.626140	1.019033	0.338429	458.564941
4936.627042	0.634490	0.338429	1030.874756
4936.627934	0.102184	0.338429	1122.022705
4936.628891	0.097504	0.338429	1215.333740
4936.629804	0.097522	0.338429	1304.371338
4936.630705	0.097500	0.338429	1392.218872
4936.631639	0.097467	0.338429	1483.253052
4936.632543	0.097551	0.338429	1571.439453
4936.633446	0.097548	0.338429	1659.524902
4936.634335	0.097496	0.338429	1746.199097
4936.635278	0.097460	0.338429	1838.103638
4936.636171	0.097643	0.338429	1925.298706
4937.702881	1.024226	0.336032	468.071320
4937.703785	0.629934	0.336032	1037.531738
4937.704677	0.102173	0.336032	1128.669922
4937.705622	0.097764	0.336032	1221.056641
4937.706533	0.097592	0.336032	1309.962524
4937.707436	0.097668	0.336032	1398.157104
4937.708327	0.097617	0.336032	1485.134033
4937.709266	0.097687	0.336032	1576.861938
4937.710164	0.097654	0.336032	1664.555054
4937.711056	0.097756	0.336032	1751.753662
4937.711993	0.097577	0.336032	1843.183228
4937.712895	0.097562	0.336032	1931.184326
4938.697682	1.013005	0.344242	450.787384
4938.698575	0.643663	0.344242	1025.578735
4938.699542	0.100759	0.344242	1123.012939
4938.700449	0.097540	0.344242	1211.481934
4938.701342	0.097643	0.344242	1298.677002
4938.702281	0.097625	0.344242	1390.346436
4938.703185	0.097668	0.344242	1478.638672
4938.704105	0.097584	0.344242	1568.416138
4938.705011	0.097628	0.344242	1656.867310
4938.705947	0.097694	0.344242	1748.308960
4938.706858	0.097614	0.344242	1837.234863
4938.707745	0.097687	0.344242	1923.883057
4939.774438	1.018187	0.330042	472.438904
4939.775403	0.531346	0.330042	985.188232
4939.776312	0.100093	0.330042	1076.172607
4939.777210	0.097559	0.330042	1163.780273
4939.778148	0.097786	0.330042	1255.503174
4939.779047	0.097723	0.330042	1343.356445
4939.779945	0.097562	0.330042	1430.967407
4939.780831	0.097632	0.330042	1517.469238
4939.781773	0.097694	0.330042	1609.497070
4939.782679	0.097614	0.330042	1697.934937
4939.783579	0.097603	0.330042	1785.777222
4939.784501	0.097632	0.330042	1875.793823
4940.768724	1.015576	0.343928	450.915802
4940.769631	0.647571	0.343928	1038.262451
4940.770517	0.102711	0.343928	1129.264526
4940.771490	0.097698	0.343928	1224.324463
4940.772389	0.097690	0.343928	1312.148193
4940.773289	0.097661	0.343928	1400.043213
4940.774173	0.097676	0.343928	1486.388672
4940.775103	0.097665	0.343928	1577.216919
4940.776020	0.097646	0.343928	1666.758789
4940.776919	0.097701	0.343928	1754.592407
4940.777852	0.097687	0.343928	1845.734131
4940.778764	0.097694	0.343928	1934.831177
4941.844428	1.011321	0.333756	443.969849
4941.845403	0.574340	0.333756	1003.950928
4941.846310	0.100312	0.333756	1094.934326
4941.847200	0.097588	0.333756	1181.787598
4941.848135	0.097672	0.333756	1273.111084
4941.849039	0.097654	0.333756	1361.390137
4941.849937	0.097628	0.333756	1449.060303
4941.850822	0.097621	0.333756	1535.454712
4941.851769	0.097617	0.333756	1627.898193
4941.852675	0.097533	0.333756	1716.263062
4941.853571	0.097639	0.333756	1803.747803
4941.854458	0.097592	0.333756	1890.311523
4942.839756	1.012947	0.342526	449.748413
4942.840656	0.634446	0.342526	1020.749695
4942.841644	0.100137	0.342526	1119.684814
4942.842554	0.097588	0.342526	1208.489746
4942.843455	0.097701	0.342526	1296.518677
4942.844384	0.097643	0.342526	1387.228882
4942.845282	0.097657	0.342526	1474.925293
4942.846177	0.097573	0.342526	1562.253296
4942.847090	0.097592	0.342526	1651.354370
4942.847987	0.097592	0.342526	1738.894043
4942.848917	0.097657	0.342526	1829.715454
4942.849825	0.097628	0.342526	1918.361816
4943.916493	1.010006	0.333821	445.412689
4943.917438	0.630791	0.333821	1041.510132
4943.918354	0.100726	0.333821	1133.775391
4943.919263	0.097548	0.333821	1222.446167
4943.920159	0.097588	0.333821	1309.884888
4943.921113	0.097698	0.333821	1403.088501
4943.922021	0.097720	0.333821	1491.817993
4943.922915	0.097581	0.333821	1579.055054
4943.923801	0.097511	0.333821	1665.449829
4943.924751	0.097617	0.333821	1758.186157
4943.925657	0.097570	0.333821	1846.584229
4943.926555	0.097610	0.333821	1934.237915
4944.911319	1.019180	0.343678	451.496613
4944.912258	0.618516	0.343678	1032.282715
4944.913148	0.101675	0.343678	1122.773315
4944.914084	0.097657	0.343678	1214.180664
4944.914981	0.097646	0.343678	1301.769531
4944.915881	0.097581	0.343678	1389.592041
4944.916771	0.097650	0.343678	1476.500732
4944.917715	0.097588	0.343678	1568.623657
4944.918617	0.097694	0.343678	1656.743774
4944.919526	0.097661	0.343678	1745.517700
4944.920418	0.097679	0.343678	1832.647705
4944.921361	0.097646	0.343678	1924.728394
4945.987580	1.060942	0.333736	513.496155
4945.988502	0.561273	0.333736	1030.989990
4945.989413	0.100510	0.333736	1122.554810
4945.990298	0.097595	0.333736	1208.926514
4945.991256	0.097661	0.333736	1302.485840
4945.992159	0.097559	0.333736	1390.581299
4945.993055	0.097636	0.333736	1478.062744
4945.993991	0.097712	0.333736	1569.521484
4945.994893	0.097636	0.333736	1657.588745
4945.995793	0.097551	0.333736	1745.384888
4945.996702	0.097621	0.333736	1834.122192
4945.997601	0.097562	0.333736	1921.830688
4946.982350	1.008029	0.345761	443.532532
4946.983244	0.658561	0.345761	1032.285889
4946.984218	0.101074	0.345761	1130.732178
4946.985127	0.097603	0.345761	1219.452881
4946.986033	0.097584	0.345761	1307.864258
4946.986920	0.097606	0.345761	1394.440918
4946.987854	0.097540	0.345761	1485.543579
4946.988770	0.097606	0.345761	1574.950806
4946.989663	0.097566	0.345761	1662.077148
4946.990594	0.097573	0.345761	1752.917847
4946.991501	0.097599	0.345761	1841.440063
4946.992401	0.097544	0.345761	1929.229614
4948.059088	1.010874	0.331597	448.828003
4948.059984	0.651178	0.331597	1032.283447
4948.060939	0.101082	0.331597	1128.816284
4948.061844	0.097625	0.331597	1217.166504
4948.062737	0.097588	0.331597	1304.312500
4948.063658	0.097606	0.331597	1394.207764
4948.064571	0.097742	0.331597	1483.445923
4948.065480	0.097551	0.331597	1572.119995
4948.066379	0.097617	0.331597	1659.877808
4948.067306	0.097668	0.331597	1750.416504
4948.068209	0.097610	0.331597	1838.558228
4948.069115	0.097551	0.331597	1926.939697
4949.053901	1.008512	0.341632	446.770813
4949.054870	0.558003	0.341632	987.475586
4949.055785	0.100250	0.341632	1079.204590
4949.056708	0.097610	0.341632	1169.298462
4949.057596	0.097753	0.341632	1256.102905
4949.058550	0.097646	0.341632	1349.257690
4949.059446	0.097628	0.341632	1436.732544
4949.060339	0.097701	0.341632	1523.979858
4949.061271	0.097749	0.341632	1615.081909
4949.062183	0.097643	0.341632	1704.132202
4949.063074	0.097639	0.341632	1791.128662
4949.063991	0.097709	0.341632	1880.727539
4950.130179	1.028925	0.334369	508.288757
4950.131104	0.551675	0.334369	1018.587891
4950.132002	0.100616	0.334369	1108.941406
4950.132890	0.097522	0.334369	1195.540894
4950.133846	0.097639	0.334369	1288.883911
4950.134744	0.097537	0.334369	1376.471802
4950.135646	0.097551	0.334369	1464.463013
4950.136542	0.097577	0.334369	1551.891968
4950.137498	0.097588	0.334369	1645.186035
4950.138409	0.097540	0.334369	1734.045288
4950.139305	0.097548	0.334369	1821.447998
4950.140234	0.097614	0.334369	1912.130981
4951.124952	1.020692	0.341229	459.311462
4951.125850	0.644279	0.341229	1037.873657
4951.126789	0.102407	0.341229	1134.034058
4951.127696	0.097610	0.341229	1222.566162
4951.128600	0.097745	0.341229	1310.927979
4951.129495	0.097676	0.341229	1398.347778
4951.130447	0.097694	0.341229	1491.352539
4951.131344	0.097683	0.341229	1578.974243
4951.132246	0.097683	0.341229	1667.084351
4951.133131	0.097661	0.341229	1753.514404
4951.134067	0.097661	0.341229	1844.925171
4951.134967	0.097559	0.341229	1932.727905
4952.201176	1.024768	0.332943	459.096069
4952.202094	0.623426	0.332943	1031.401611
4952.202983	0.101997	0.332943	1122.077026
4952.203941	0.097654	0.332943	1215.629395
4952.204847	0.097610	0.332943	1304.063965
4952.205742	0.097636	0.332943	1391.447754
4952.206627	0.097588	0.332943	1477.812988
4952.207554	0.097643	0.332943	1568.327881
4952.208453	0.097588	0.332943	1656.059448
4952.209366	0.097654	0.332943	1745.217407
4952.210261	0.097654	0.332943	1832.617554
4952.211210	0.097701	0.332943	1925.336182
4953.196485	1.001477	0.341926	434.641022
4953.197450	0.618120	0.341926	1031.126953
4953.198353	0.100624	0.341926	1121.990234
4953.199276	0.097581	0.341926	1212.057129
4953.200167	0.097625	0.341926	1299.040527
4953.201099	0.097643	0.341926	1390.043579
4953.202006	0.097625	0.341926	1478.588989
4953.202916	0.097665	0.341926	1567.463989
4953.203813	0.097625	0.341926	1655.033203
4953.204757	0.097537	0.341926	1747.107788
4953.205659	0.097646	0.341926	1835.184937
4953.206551	0.097683	0.341926	1922.318237
4954.272201	1.006227	0.333027	437.708649
4954.273167	0.613121	0.333027	1029.983887
4954.274081	0.100404	0.333027	1121.753174
4954.274989	0.097566	0.333027	1210.343018
4954.275877	0.097566	0.333027	1296.981567
4954.276825	0.097617	0.333027	1389.522705
4954.277724	0.097592	0.333027	1477.257568
4954.278623	0.097595	0.333027	1564.995605
4954.279508	0.097595	0.333027	1651.367432
4954.280459	0.097632	0.333027	1744.215332
4954.281367	0.097661	0.333027	1832.891602
4954.282267	0.097555	0.333027	1920.691040
4955.268064	1.031389	0.342050	473.407593
4955.268964	0.627037	0.342050	1037.741211
4955.269916	0.101323	0.342050	1134.200928
4955.270819	0.097595	0.342050	1222.329346
4955.271715	0.097621	0.342050	1309.797607
4955.272606	0.097595	0.342050	1396.754883
4955.273534	0.097672	0.342050	1487.394653
4955.274444	0.097566	0.342050	1576.179687
4955.275341	0.097606	0.342050	1663.732422
4955.276261	0.097540	0.342050	1753.469482
4955.277185	0.097625	0.342050	1843.674561
4955.278096	0.097617	0.342050	1932.603760
4956.342214	1.005183	0.334518	439.265015
4956.343194	0.560599	0.334518	988.652344
4956.344097	0.100393	0.334518	1079.307251
4956.345002	0.097540	0.334518	1167.581177
4956.345890	0.097603	0.334518	1254.252197
4956.346837	0.097657	0.334518	1346.733887
4956.347741	0.097603	0.334518	1434.966553
4956.348633	0.097643	0.334518	1522.063965
4956.349541	0.097548	0.334518	1610.637207
4956.350438	0.097595	0.334518	1698.180176
4956.351365	0.097599	0.334518	1788.654297
4956.352292	0.097679	0.334518	1879.203125
4957.339662	1.067520	0.339376	536.962341
4957.340589	0.522217	0.339376	1021.057312
4957.341497	0.099928	0.339376	1111.791870
4957.342387	0.097496	0.339376	1198.563599
4957.343330	0.097668	0.339376	1290.664917
4957.344233	0.097595	0.339376	1378.793457
4957.345132	0.097617	0.339376	1466.551270
4957.346047	0.097636	0.339376	1555.887695
4957.346966	0.097636	0.339376	1645.614746
4957.347881	0.097526	0.339376	1734.850708
4957.348770	0.097566	0.339376	1821.586792
4957.349698	0.097636	0.339376	1912.192505
4958.414294	1.018751	0.336902	458.438080
4958.415194	0.644553	0.336902	1038.535889
4958.416146	0.102224	0.336902	1135.853271
4958.417053	0.097577	0.336902	1224.355469
4958.417961	0.097588	0.336902	1312.965332
4958.418855	0.097588	0.336902	1400.208862
4958.419793	0.097727	0.336902	1491.876831
4958.420693	0.097676	0.336902	1579.785034
4958.421594	0.097632	0.336902	1667.751343
4958.422484	0.097562	0.336902	1754.581787
4958.423407	0.097694	0.336902	1844.753418
4958.424319	0.097654	0.336902	1933.813721
4959.410657	1.024405	0.345241	464.055695
4959.411554	0.640690	0.345241	1038.754272
4959.412445	0.102323	0.345241	1129.924072
4959.413399	0.097577	0.345241	1223.012451
4959.414312	0.097540	0.345241	1312.066772
4959.415208	0.097577	0.345241	1399.495728
4959.416136	0.097636	0.345241	1490.101440
4959.417039	0.097621	0.345241	1578.253052
4959.417941	0.097507	0.345241	1666.204712
4959.418828	0.097610	0.345241	1752.784668
4959.419768	0.097639	0.345241	1844.565430
4959.420672	0.097584	0.345241	1932.781616
4960.484314	1.023494	0.342272	465.689606
4960.485208	0.646333	0.342272	1043.511230
4960.486153	0.101334	0.342272	1139.272095
4960.487067	0.097595	0.342272	1228.474121
4960.487970	0.097621	0.342272	1316.625732
4960.488857	0.097606	0.342272	1403.202393
4960.489811	0.097650	0.342272	1496.360596
4960.490717	0.097694	0.342272	1584.871460
4960.491610	0.097709	0.342272	1672.125366
4960.492536	0.097657	0.342272	1762.556152
4960.493428	0.097709	0.342272	1849.712402
4960.494367	0.097581	0.342272	1941.340576
4961.482193	1.017956	0.344999	448.918823
4961.483165	0.554550	0.344999	987.940979
4961.484071	0.100477	0.344999	1078.973389
4961.484968	0.097584	0.344999	1166.506470
4961.485910	0.097665	0.344999	1258.506714
4961.486807	0.097701	0.344999	1346.144897
4961.487708	0.097599	0.344999	1434.081543
4961.488593	0.097599	0.344999	1520.456543
4961.489520	0.097731	0.344999	1611.052979
4961.490422	0.097621	0.344999	1699.106934
4961.491328	0.097614	0.344999	1787.544800
4961.492234	0.097650	0.344999	1876.015869
4962.556396	1.042775	0.334002	482.804687
4962.557332	0.581071	0.334002	1026.686768
4962.558221	0.101023	0.334002	1116.496216
4962.559156	0.097599	0.334002	1207.751221
4962.560066	0.097661	0.334002	1296.622803
4962.560967	0.097595	0.334002	1384.556152
4962.561856	0.097625	0.334002	1471.344360
4962.562812	0.097679	0.334002	1564.725952
4962.563717	0.097694	0.334002	1653.139160
4962.564617	0.097628	0.334002	1741.004517
4962.565534	0.097636	0.334002	1830.536255
4962.566442	0.097687	0.334002	1919.235840
4963.553256	1.048707	0.338393	486.600220
4963.554183	0.583550	0.338393	1027.550903
4963.555077	0.100961	0.338393	1117.809814
4963.556006	0.097548	0.338393	1208.431519
4963.556910	0.097668	0.338393	1296.723755
4963.557804	0.097617	0.338393	1383.993530
4963.558708	0.097668	0.338393	1472.285767
4963.559638	0.097683	0.338393	1563.131104
4963.560538	0.097566	0.338393	1650.940430
4963.561436	0.097610	0.338393	1738.594116
4963.562374	0.097650	0.338393	1830.189941
4963.563280	0.097668	0.338393	1918.677612
4964.627419	1.019916	0.335686	458.962128
4964.628317	0.639148	0.335686	1032.916992
4964.629284	0.100657	0.335686	1130.252075
4964.630182	0.097485	0.335686	1217.793945
4964.631079	0.097639	0.335686	1305.376221
4964.632001	0.097610	0.335686	1395.372559
4964.632914	0.097753	0.335686	1484.620728
4964.633826	0.097610	0.335686	1573.640869
4964.634723	0.097628	0.335686	1661.213379
4964.635658	0.097657	0.335686	1752.523071
4964.636561	0.097661	0.335686	1840.711060
4964.637467	0.097584	0.335686	1929.122314
4965.625351	1.045100	0.344052	522.550049
4965.626288	0.517039	0.344052	1007.015198
4965.627189	0.100104	0.344052	1097.208740
4965.628084	0.097643	0.344052	1184.599121
4965.629034	0.097661	0.344052	1277.377197
4965.629936	0.097745	0.344052	1365.543457
4965.630839	0.097709	0.344052	1453.774414
4965.631723	0.097654	0.344052	1540.100342
4965.632666	0.097709	0.344052	1632.239746
4965.633576	0.097595	0.344052	1721.051392
4965.634465	0.097592	0.344052	1807.810303
4965.635389	0.097676	0.344052	1898.062744
4966.698499	1.031327	0.334965	509.475494
4966.699430	0.548789	0.334965	1020.398132
4966.700346	0.100206	0.334965	1112.187134
4966.701237	0.097493	0.334965	1199.053101
4966.702169	0.097661	0.334965	1290.073242
4966.703077	0.097632	0.334965	1378.722900
4966.703978	0.097526	0.334965	1466.593506
4966.704865	0.097592	0.334965	1553.157227
4966.705824	0.097628	0.334965	1646.782593
4966.706729	0.097555	0.334965	1735.069824
4966.707630	0.097573	0.334965	1822.983276
4966.708553	0.097672	0.334965	1913.134644
4967.696873	1.040013	0.340701	480.486206
4967.697782	0.610979	0.340701	1035.866089
4967.698683	0.101664	0.340701	1127.465210
4967.699626	0.097588	0.340701	1219.490601
4967.700518	0.097610	0.340701	1306.558594
4967.701407	0.097610	0.340701	1393.333740
4967.702344	0.097606	0.340701	1484.790771
4967.703252	0.097551	0.340701	1573.367310
4967.704147	0.097562	0.340701	1660.685547
4967.705075	0.097628	0.340701	1751.284546
4967.705987	0.097665	0.340701	1840.354858
4967.706891	0.097566	0.340701	1928.554443
4968.769505	1.031397	0.332560	470.316803
4968.770410	0.630121	0.332560	1040.576172
4968.771296	0.102297	0.332560	1131.211670
4968.772245	0.097599	0.332560	1223.833008
4968.773166	0.097573	0.332560	1313.697998
4968.774064	0.097588	0.332560	1401.331909
4968.774995	0.097625	0.332560	1492.220337
4968.775903	0.097654	0.332560	1580.890015
4968.776803	0.097599	0.332560	1668.729004
4968.777691	0.097606	0.332560	1755.403320
4968.778634	0.097657	0.332560	1847.494263
4968.779534	0.097603	0.332560	1935.336548
4969.767886	1.014869	0.337744	449.587158
4969.768864	0.549866	0.337744	987.355835
4969.769782	0.100320	0.337744	1079.449463
4969.770680	0.097599	0.337744	1167.093262
4969.771616	0.097636	0.337744	1258.480103
4969.772511	0.097592	0.337744	1345.824585
4969.773412	0.097581	0.337744	1433.744629
4969.774304	0.097614	0.337744	1520.815918
4969.775234	0.097665	0.337744	1611.644165
4969.776135	0.097588	0.337744	1699.570801
4969.777038	0.097610	0.337744	1787.712524
4969.777924	0.097679	0.337744	1874.256470
4970.840532	1.016360	0.335142	455.329254
4970.841432	0.645048	0.335142	1035.872070
4970.842396	0.100847	0.335142	1133.088745
4970.843295	0.097485	0.335142	1220.728027
4970.844182	0.097654	0.335142	1307.346924
4970.845091	0.097709	0.335142	1396.164185
4970.846029	0.097639	0.335142	1487.749756
4970.846938	0.097654	0.335142	1576.517090
4970.847828	0.097679	0.335142	1663.451782
4970.848758	0.097654	0.335142	1754.269775
4970.849662	0.097639	0.335142	1842.535522
4970.850559	0.097610	0.335142	1930.091553
4971.838939	1.025614	0.339577	460.500702
4971.839849	0.632377	0.339577	1035.963501
4971.840733	0.102294	0.339577	1126.391113
4971.841696	0.097463	0.339577	1220.248291
4971.842604	0.097548	0.339577	1308.821533
4971.843501	0.097584	0.339577	1396.354614
4971.844411	0.097548	0.339577	1485.122925
4971.845307	0.097548	0.339577	1572.525635
4971.846269	0.097529	0.339577	1666.348877
4971.847166	0.097478	0.339577	1753.786621
4971.848054	0.097522	0.339577	1840.386108
4971.848995	0.097507	0.339577	1932.140503
4972.912077	1.010779	0.337273	442.721100
4972.913009	0.618629	0.337273	1019.283447
4972.913906	0.101689	0.337273	1110.498901
4972.914846	0.097595	0.337273	1202.238403
4972.915749	0.097650	0.337273	1290.416504
4972.916648	0.097643	0.337273	1378.197388
4972.917537	0.097610	0.337273	1464.972534
4972.918485	0.097603	0.337273	1557.499756
4972.919392	0.097606	0.337273	1646.028564
4972.920283	0.097551	0.337273	1732.946777
4972.921209	0.097592	0.337273	1823.316528
4972.922120	0.097665	0.337273	1912.289185
4973.909973	1.016063	0.344641	453.164185
4973.910869	0.645319	0.344641	1031.369629
4973.911822	0.101082	0.344641	1127.700317
4973.912728	0.097537	0.344641	1216.068481
4973.913620	0.097544	0.344641	1303.077637
4973.914543	0.097621	0.344641	1393.181641
4973.915458	0.097731	0.344641	1482.605225
4973.916358	0.097540	0.344641	1570.391479
4973.917249	0.097643	0.344641	1657.391235
4973.918191	0.097661	0.344641	1749.388062
4973.919097	0.097592	0.344641	1837.806030
4973.920003	0.097610	0.344641	1926.240601
4974.983135	1.024731	0.337652	457.030212
4974.984059	0.609591	0.337652	1020.292358
4974.984953	0.101616	0.337652	1111.137207
4974.985916	0.097482	0.337652	1205.012085
4974.986824	0.097646	0.337652	1293.675049
4974.987717	0.097555	0.337652	1380.791626
4974.988641	0.097679	0.337652	1471.047485
4974.989545	0.097504	0.337652	1559.190796
4974.990463	0.097559	0.337652	1648.749634
4974.991350	0.097504	0.337652	1735.235352
4974.992303	0.097617	0.337652	1828.264526
4974.993194	0.097570	0.337652	1915.198975
4975.981532	1.019487	0.337986	456.730286
4975.982451	0.619607	0.337986	1026.149048
4975.983348	0.101591	0.337986	1117.275757
4975.984286	0.097474	0.337986	1208.706665
4975.985195	0.097555	0.337986	1297.384033
4975.986098	0.097489	0.337986	1385.416626
4975.986991	0.097529	0.337986	1472.510254
4975.987939	0.097540	0.337986	1564.978394
4975.988837	0.097482	0.337986	1652.516968
4975.989738	0.097522	0.337986	1740.384277
4975.990624	0.097537	0.337986	1826.801758
4975.991563	0.097526	0.337986	1918.378296
4977.054668	1.006454	0.337096	439.820343
4977.055600	0.628008	0.337096	1025.123657
4977.056501	0.101708	0.337096	1116.762329
4977.057429	0.097518	0.337096	1207.259277
4977.058334	0.097621	0.337096	1295.606201
4977.059242	0.097537	0.337096	1384.169434
4977.060134	0.097489	0.337096	1471.129639
4977.061061	0.097603	0.337096	1561.607178
4977.061968	0.097625	0.337096	1650.152588
4977.062871	0.097529	0.337096	1738.221558
4977.063759	0.097555	0.337096	1824.850342
4977.064713	0.097687	0.337096	1918.043457
4978.052050	1.017447	0.341845	450.729218
4978.052960	0.637595	0.341845	1030.940918
4978.053847	0.102550	0.341845	1121.902832
4978.054797	0.097628	0.341845	1214.649658
4978.055708	0.097584	0.341845	1303.548950
4978.056604	0.097511	0.341845	1390.918823
4978.057540	0.097672	0.341845	1482.339966
4978.058437	0.097679	0.341845	1569.958374
4978.059340	0.097617	0.341845	1658.106689
4978.060228	0.097559	0.341845	1744.738770
4978.061157	0.097625	0.341845	1835.431885
4978.062062	0.097540	0.341845	1923.705811
4979.125721	1.026892	0.339501	464.155212
4979.126618	0.641719	0.339501	1039.776855
4979.127565	0.101364	0.339501	1135.768066
4979.128464	0.097555	0.339501	1223.469971
4979.129363	0.097573	0.339501	1311.188354
4979.130249	0.097592	0.339501	1397.654419
4979.131199	0.097632	0.339501	1490.404663
4979.132097	0.097599	0.339501	1578.048462
4979.133000	0.097621	0.339501	1666.200073
4979.133916	0.097636	0.339501	1755.634155
4979.134824	0.097632	0.339501	1844.283813
4979.135735	0.097471	0.339501	1933.079590
4980.123081	1.004396	0.344250	437.916534
4980.124053	0.585872	0.344250	1007.383667
4980.124960	0.100265	0.344250	1098.323975
4980.125864	0.097467	0.344250	1186.434204
4980.126753	0.097529	0.344250	1273.137695
4980.127694	0.097665	0.344250	1365.040283
4980.128597	0.097570	0.344250	1453.145630
4980.129488	0.097544	0.344250	1540.057251
4980.130404	0.097540	0.344250	1629.404175
4980.131330	0.097621	0.344250	1719.801025
4980.132247	0.097599	0.344250	1809.299194
4980.133142	0.097599	0.344250	1896.650146
4981.197335	1.077224	0.335186	559.079346
4981.198256	0.515098	0.335186	1033.484375
4981.199160	0.099968	0.335186	1123.855713
4981.200047	0.097548	0.335186	1210.380493
4981.200980	0.097709	0.335186	1301.542725
4981.201887	0.097628	0.335186	1390.091431
4981.202784	0.097588	0.335186	1477.627808
4981.203708	0.097584	0.335186	1567.795654
4981.204622	0.097676	0.335186	1657.071289
4981.205528	0.097559	0.335186	1745.459351
4981.206416	0.097636	0.335186	1832.159668
4981.207355	0.097665	0.335186	1923.866943
4982.194131	1.019920	0.344355	456.923950
4982.195110	0.536613	0.344355	982.267639
4982.196016	0.100089	0.344355	1072.948364
4982.196906	0.097548	0.344355	1159.765747
4982.197837	0.097614	0.344355	1250.643921
4982.198747	0.097504	0.344355	1339.372314
4982.199643	0.097533	0.344355	1426.761841
4982.200529	0.097584	0.344355	1513.221436
4982.201469	0.097679	0.344355	1605.040161
4982.202367	0.097584	0.344355	1692.670776
4982.203262	0.097526	0.344355	1779.956177
4982.204196	0.097559	0.344355	1871.075928
4983.269326	1.003912	0.335122	437.705780
4983.270270	0.628550	0.335122	1031.056763
4983.271181	0.101243	0.335122	1123.288818
4983.272077	0.097467	0.335122	1210.619263
4983.272962	0.097544	0.335122	1296.945679
4983.273906	0.097632	0.335122	1389.110107
4983.274808	0.097639	0.335122	1477.180664
4983.275709	0.097577	0.335122	1565.097412
4983.276598	0.097610	0.335122	1651.872559
4983.277550	0.097657	0.335122	1744.842529
4983.278455	0.097496	0.335122	1833.076660
4983.279350	0.097518	0.335122	1920.355591
4984.265683	1.017722	0.344153	452.886414
4984.266581	0.636727	0.344153	1024.667480
4984.267534	0.100924	0.344153	1120.848145
4984.268448	0.097544	0.344153	1210.003296
4984.269341	0.097551	0.344153	1297.116577
4984.270273	0.097581	0.344153	1388.061646
4984.271184	0.097625	0.344153	1476.997559
4984.272083	0.097562	0.344153	1564.706055
4984.272970	0.097548	0.344153	1651.230835
4984.273925	0.097614	0.344153	1744.451782
4984.274834	0.097544	0.344153	1833.119263
4984.275741	0.097603	0.344153	1921.644775
4985.340375	1.022926	0.333317	461.339600
4985.341349	0.540615	0.333317	987.898804
4985.342254	0.100280	0.333317	1078.651733
4985.343140	0.097537	0.333317	1165.069214
4985.344087	0.097606	0.333317	1257.502319
4985.344993	0.097584	0.333317	1345.913574
4985.345897	0.097628	0.333317	1434.169434
4985.346793	0.097595	0.333317	1521.614746
4985.347742	0.097654	0.333317	1614.288208
4985.348648	0.097654	0.333317	1702.762573
4985.349540	0.097555	0.333317	1789.781616
4985.350474	0.097606	0.333317	1880.945801
4986.336201	1.008094	0.342377	441.545349
4986.337162	0.576475	0.342377	995.537476
4986.338075	0.100554	0.342377	1087.343506
4986.338976	0.097452	0.342377	1175.148071
4986.339870	0.097485	0.342377	1262.299927
4986.340804	0.097526	0.342377	1353.388916
4986.341713	0.097515	0.342377	1442.029785
4986.342614	0.097496	0.342377	1529.874023
4986.343503	0.097562	0.342377	1616.606934
4986.344458	0.097540	0.342377	1709.757935
4986.345359	0.097504	0.342377	1797.608765
4986.346272	0.097522	0.342377	1886.646362
4987.411420	1.021912	0.340254	462.925964
4987.412316	0.645981	0.340254	1041.725342
4987.413273	0.102144	0.340254	1139.476685
4987.414178	0.097522	0.340254	1227.734009
4987.415083	0.097551	0.340254	1316.017944
4987.415969	0.097570	0.340254	1402.464600
4987.416896	0.097716	0.340254	1493.047363
4987.417798	0.097625	0.340254	1581.104736
4987.418702	0.097540	0.340254	1669.281128
4987.419599	0.097573	0.340254	1756.804321
4987.420541	0.097562	0.340254	1848.708008
4987.421442	0.097529	0.340254	1936.581909
4988.407259	1.017609	0.344274	453.853455
4988.408184	0.614443	0.344274	1022.213562
4988.409084	0.101605	0.344274	1113.658325
4988.410031	0.097636	0.344274	1206.119141
4988.410935	0.097610	0.344274	1294.358398
4988.411840	0.097526	0.344274	1382.619141
4988.412728	0.097581	0.344274	1469.270630
4988.413675	0.097621	0.344274	1561.717529
4988.414581	0.097500	0.344274	1650.052490
4988.415474	0.097570	0.344274	1737.182129
4988.416410	0.097690	0.344274	1828.620361
4988.417308	0.097573	0.344274	1916.241089
4989.483464	1.012621	0.334896	443.527924
4989.484460	0.528940	0.334896	970.352661
4989.485362	0.100049	0.334896	1060.596680
4989.486248	0.097540	0.334896	1147.017334
4989.487181	0.097581	0.334896	1238.060059
4989.488098	0.097588	0.334896	1327.548096
4989.489012	0.097599	0.334896	1416.753418
4989.489896	0.097621	0.334896	1503.050293
4989.490832	0.097643	0.334896	1594.443970
4989.491736	0.097570	0.334896	1682.646851
4989.492654	0.097588	0.334896	1772.232544
4989.493546	0.097584	0.334896	1859.277710
4990.478291	1.012068	0.347042	449.358154
4990.479186	0.647977	0.347042	1029.297852
4990.480129	0.101239	0.347042	1124.766235
4990.481042	0.097540	0.347042	1213.820557
4990.481940	0.097595	0.347042	1301.461060
4990.482873	0.097614	0.347042	1392.534424
4990.483780	0.097734	0.347042	1481.179443
4990.484681	0.097562	0.347042	1569.083008
4990.485575	0.097698	0.347042	1656.424805
4990.486527	0.097771	0.347042	1749.502808
4990.487424	0.097705	0.347042	1837.144287
4990.488324	0.097672	0.347042	1925.049194
4991.555023	1.006706	0.334340	439.930725
4991.555957	0.637950	0.334340	1035.776367
4991.556881	0.101056	0.334340	1129.151978
4991.557789	0.097496	0.334340	1217.678711
4991.558689	0.097566	0.334340	1305.488037
4991.559629	0.097654	0.334340	1397.282593
4991.560530	0.097632	0.334340	1485.248901
4991.561437	0.097544	0.334340	1573.721191
4991.562325	0.097588	0.334340	1660.379272
4991.563274	0.097646	0.334340	1753.045776
4991.564184	0.097592	0.334340	1841.854126
4991.565080	0.097555	0.334340	1929.263306
4992.549381	1.044606	0.346542	519.169067
4992.550307	0.547833	0.346542	1026.462646
4992.551204	0.100426	0.346542	1116.544800
4992.552090	0.097456	0.346542	1202.890869
4992.553048	0.097617	0.346542	1296.408081
4992.553953	0.097573	0.346542	1384.711914
4992.554862	0.097555	0.346542	1473.389404
4992.555752	0.097606	0.346542	1560.258911
4992.556698	0.097621	0.346542	1652.608276
4992.557606	0.097540	0.346542	1741.174805
4992.558505	0.097544	0.346542	1828.866821
4992.559445	0.097533	0.346542	1920.547852
4993.626140	1.091389	0.336081	568.613708
4993.627065	0.512509	0.336081	1042.684082
4993.627968	0.099877	0.336081	1132.872803
4993.628860	0.097562	0.336081	1219.898315
4993.629795	0.097628	0.336081	1311.180664
4993.630698	0.097603	0.336081	1399.315796
4993.631594	0.097628	0.336081	1486.790649
4993.632520	0.097577	0.336081	1577.146851
4993.633431	0.097727	0.336081	1666.176147
4993.634330	0.097529	0.336081	1753.854980
4993.635255	0.097628	0.336081	1844.161011
4993.636141	0.097533	0.336081	1930.575195
4994.620383	1.030030	0.344117	469.693909
4994.621289	0.625627	0.344117	1036.512329
4994.622177	0.102198	0.344117	1127.264526
4994.623130	0.097698	0.344117	1220.370483
4994.624032	0.097562	0.344117	1308.371582
4994.624929	0.097559	0.344117	1395.881592
4994.625862	0.097657	0.344117	1486.995972
4994.626770	0.097606	0.344117	1575.622437
4994.627679	0.097595	0.344117	1664.336426
4994.628569	0.097628	0.344117	1751.225464
4994.629514	0.097614	0.344117	1843.470215
4994.630415	0.097555	0.344117	1931.367187
