time (s)	coil I (A)	last det (V)	int current (uC)
3281.151703	1.019583	0.606264	457.792542
3281.152610	0.640638	0.606264	1038.851562
3281.153497	0.102598	0.606264	1129.855713
3281.154428	0.097694	0.606264	1220.808960
3281.155336	0.097687	0.606264	1309.508545
3281.156232	0.097775	0.606264	1397.114624
3281.157166	0.097698	0.606264	1488.364380
3281.158074	0.097764	0.606264	1577.133789
3281.158973	0.097665	0.606264	1664.934448
3281.159860	0.097650	0.606264	1751.550171
3281.160801	0.097745	0.606264	1843.528564
3281.161699	0.097720	0.606264	1931.280884
3282.228953	1.015627	0.520042	451.954193
3282.229852	0.637731	0.520042	1025.274048
3282.230800	0.100975	0.520042	1120.998657
3282.231722	0.097712	0.520042	1211.089478
3282.232624	0.097672	0.520042	1299.189697
3282.233533	0.097687	0.520042	1387.986938
3282.234458	0.097793	0.520042	1478.445435
3282.235369	0.097734	0.520042	1567.481445
3282.236258	0.097632	0.520042	1654.276123
3282.237196	0.097734	0.520042	1745.950928
3282.238102	0.097745	0.520042	1834.508179
3282.239003	0.097723	0.520042	1922.557007
3283.224798	1.027189	0.550403	461.207764
3283.225705	0.633768	0.550403	1036.035645
3283.226590	0.102557	0.550403	1126.798950
3283.227560	0.097764	0.550403	1221.629761
3283.228474	0.097742	0.550403	1310.965698
3283.229366	0.097786	0.550403	1398.190430
3283.230295	0.097764	0.550403	1489.012939
3283.231202	0.097727	0.550403	1577.651367
3283.232101	0.097712	0.550403	1665.494873
3283.232990	0.097782	0.550403	1752.423096
3283.233940	0.097771	0.550403	1845.305542
3283.234839	0.097734	0.550403	1933.168701
3284.300316	1.062664	0.578916	555.773010
3284.301235	0.523440	0.578916	1036.814331
3284.302139	0.100192	0.578916	1127.387573
3284.303025	0.097599	0.578916	1213.860229
3284.303953	0.097863	0.578916	1304.676636
3284.304867	0.097837	0.578916	1394.099609
3284.305764	0.097804	0.578916	1481.829712
3284.306683	0.097855	0.578916	1571.758667
3284.307607	0.097822	0.578916	1662.146484
3284.308509	0.097734	0.578916	1750.302856
3284.309402	0.097848	0.578916	1837.681030
3284.310346	0.097870	0.578916	1930.070190
3285.297440	1.089686	0.593865	570.995605
3285.298373	0.506067	0.593865	1043.156006
3285.299269	0.099833	0.593865	1132.606201
3285.300162	0.097646	0.593865	1219.804565
3285.301103	0.097771	0.593865	1311.807129
3285.302003	0.097819	0.593865	1399.843872
3285.302897	0.097797	0.593865	1487.274048
3285.303837	0.097764	0.593865	1579.171875
3285.304747	0.097738	0.593865	1668.113525
3285.305648	0.097720	0.593865	1756.159058
3285.306540	0.097745	0.593865	1843.347900
3285.307486	0.097837	0.593865	1935.901611
3286.369746	1.025709	0.571109	457.466339
3286.370724	0.537861	0.571109	983.494629
3286.371635	0.100243	0.571109	1074.815918
3286.372530	0.097650	0.571109	1162.212769
3286.373459	0.097826	0.571109	1253.093018
3286.374364	0.097830	0.571109	1341.628784
3286.375265	0.097800	0.571109	1429.746826
3286.376154	0.097841	0.571109	1516.727051
3286.377090	0.097917	0.571109	1608.377808
3286.377986	0.097852	0.571109	1696.052856
3286.378886	0.097749	0.571109	1784.026978
3286.379802	0.097734	0.571109	1873.551636
3287.366095	1.010134	0.605354	444.459045
3287.367040	0.599974	0.605354	1011.434814
3287.367945	0.101495	0.605354	1103.288086
3287.368843	0.097731	0.605354	1191.050293
3287.369766	0.097760	0.605354	1281.282715
3287.370689	0.097888	0.605354	1371.633545
3287.371597	0.097749	0.605354	1460.389648
3287.372489	0.097731	0.605354	1547.565430
3287.373423	0.097826	0.605354	1638.934814
3287.374323	0.097848	0.605354	1726.997925
3287.375219	0.097808	0.605354	1814.633545
3287.376105	0.097819	0.605354	1901.300781
3288.442318	1.012163	0.527410	446.363892
3288.443298	0.565089	0.527410	1000.151245
3288.444202	0.100649	0.527410	1091.138306
3288.445100	0.097687	0.527410	1178.861084
3288.445986	0.097771	0.527410	1265.486206
3288.446929	0.097815	0.527410	1357.725708
3288.447841	0.097767	0.527410	1446.889526
3288.448741	0.097841	0.527410	1534.946045
3288.449670	0.097830	0.527410	1625.829712
3288.450587	0.097892	0.527410	1715.596558
3288.451496	0.097764	0.527410	1804.463745
3288.452395	0.097797	0.527410	1892.382935
3289.436878	1.024226	0.553525	452.707916
3289.437875	0.522781	0.553525	973.920288
3289.438773	0.100031	0.553525	1063.747681
3289.439661	0.097661	0.553525	1150.470703
3289.440590	0.097742	0.553525	1241.272705
3289.441498	0.097665	0.553525	1329.952393
3289.442387	0.097661	0.553525	1416.773193
3289.443302	0.097771	0.553525	1506.233643
3289.444225	0.097683	0.553525	1596.395142
3289.445122	0.097705	0.553525	1684.036621
3289.446013	0.097698	0.553525	1771.085327
3289.446948	0.097683	0.553525	1862.419067
3290.513628	1.023717	0.580745	460.672668
3290.514561	0.602194	0.580745	1022.519287
3290.515459	0.101536	0.580745	1113.698242
3290.516385	0.097804	0.580745	1204.264648
3290.517292	0.097701	0.580745	1292.879883
3290.518197	0.097764	0.580745	1381.355957
3290.519085	0.097709	0.580745	1468.121338
3290.520022	0.097866	0.580745	1559.822021
3290.520933	0.097665	0.580745	1648.794678
3290.521821	0.097712	0.580745	1735.563232
3290.522735	0.097668	0.580745	1824.832153
3290.523663	0.097742	0.580745	1915.536499
3291.509760	1.071262	0.593454	520.633423
3291.510687	0.545511	0.593454	1026.322510
3291.511595	0.100408	0.593454	1117.492676
3291.512484	0.097687	0.593454	1204.336182
3291.513432	0.097815	0.593454	1297.064697
3291.514335	0.097767	0.593454	1385.348633
3291.515229	0.097709	0.593454	1472.700195
3291.516171	0.097859	0.593454	1564.883301
3291.517063	0.097943	0.593454	1652.248535
3291.517969	0.097701	0.593454	1740.765991
3291.518862	0.097698	0.593454	1828.010132
3291.519799	0.097789	0.593454	1919.638672
3292.584406	1.026940	0.579742	464.176758
3292.585307	0.636954	0.579742	1038.072632
3292.586216	0.102396	0.579742	1131.150879
3292.587155	0.097665	0.579742	1222.858154
3292.588056	0.097705	0.579742	1310.890381
3292.588946	0.097716	0.579742	1397.857666
3292.589887	0.097698	0.579742	1489.791260
3292.590792	0.097712	0.579742	1578.220947
3292.591696	0.097731	0.579742	1666.569580
3292.592586	0.097760	0.579742	1753.575928
3292.593525	0.097753	0.579742	1845.365723
3292.594423	0.097756	0.579742	1933.150879
3293.581290	1.033466	0.599758	479.527985
3293.582236	0.564697	0.599758	1013.731567
3293.583122	0.100964	0.599758	1103.186035
3293.584088	0.097595	0.599758	1197.463013
3293.584980	0.097749	0.599758	1284.655151
3293.585873	0.097742	0.599758	1371.938477
3293.586810	0.097782	0.599758	1463.560181
3293.587717	0.097687	0.599758	1552.162109
3293.588612	0.097701	0.599758	1639.604858
3293.589525	0.097808	0.599758	1728.903198
3293.590438	0.097808	0.599758	1818.201538
3293.591338	0.097734	0.599758	1906.162476
3294.654926	1.010325	0.540755	445.553192
3294.655888	0.598696	0.540755	1021.499023
3294.656785	0.101147	0.540755	1112.228271
3294.657680	0.097734	0.540755	1199.700562
3294.658567	0.097797	0.540755	1286.446167
3294.659506	0.097863	0.540755	1378.339111
3294.660414	0.097841	0.540755	1467.178345
3294.661318	0.097749	0.540755	1555.543457
3294.662212	0.097844	0.540755	1643.016235
3294.663148	0.097910	0.540755	1734.660156
3294.664058	0.097815	0.540755	1823.671753
3294.664950	0.097837	0.540755	1910.942261
3295.649752	1.023750	0.559983	457.616241
3295.650680	0.611902	0.559983	1025.461182
3295.651577	0.101642	0.559983	1116.633911
3295.652505	0.097852	0.559983	1207.440186
3295.653415	0.097676	0.559983	1296.325195
3295.654316	0.097668	0.559983	1384.324463
3295.655203	0.097727	0.559983	1471.008301
3295.656146	0.097808	0.559983	1563.240845
3295.657051	0.097723	0.559983	1651.680542
3295.657949	0.097738	0.559983	1739.449341
3295.658860	0.097683	0.559983	1828.438599
3295.659787	0.097793	0.559983	1919.092651
3296.727010	1.033235	0.576160	472.188324
3296.727915	0.622533	0.576160	1035.580688
3296.728854	0.102140	0.576160	1131.489990
3296.729757	0.097789	0.576160	1219.793701
3296.730664	0.097679	0.576160	1308.388916
3296.731552	0.097705	0.576160	1395.151001
3296.732489	0.097712	0.576160	1486.707520
3296.733392	0.097716	0.576160	1574.945068
3296.734297	0.097654	0.576160	1663.321777
3296.735186	0.097701	0.576160	1750.178345
3296.736140	0.097639	0.576160	1843.326050
3296.737041	0.097720	0.576160	1931.371582
3297.722885	1.072350	0.592596	531.885559
3297.723810	0.548243	0.592596	1039.010742
3297.724703	0.100540	0.592596	1128.792603
3297.725591	0.097756	0.592596	1215.600220
3297.726549	0.097811	0.592596	1309.303467
3297.727455	0.097819	0.592596	1397.927124
3297.728345	0.097844	0.592596	1485.008545
3297.729285	0.097786	0.592596	1576.927002
3297.730195	0.097800	0.592596	1665.925293
3297.731087	0.097720	0.592596	1753.091309
3297.731976	0.097731	0.592596	1839.973877
3297.732918	0.097855	0.592596	1932.153442
3298.798571	1.016726	0.581252	473.794312
3298.799505	0.590760	0.581252	1025.564575
3298.800411	0.100983	0.581252	1117.054932
3298.801311	0.097672	0.581252	1204.959839
3298.802242	0.097822	0.581252	1296.032349
3298.803145	0.097833	0.581252	1384.375732
3298.804045	0.097698	0.581252	1472.303711
3298.804934	0.097753	0.581252	1559.205811
3298.805884	0.097789	0.581252	1652.105591
3298.806784	0.097731	0.581252	1740.063232
3298.807687	0.097716	0.581252	1828.300781
3298.808609	0.097672	0.581252	1918.354492
3299.794378	1.001638	0.601140	434.710968
3299.795327	0.620695	0.601140	1023.750122
3299.796229	0.101261	0.601140	1115.087524
3299.797135	0.097694	0.601140	1203.598389
3299.798025	0.097687	0.601140	1290.539551
3299.798974	0.097797	0.601140	1383.348511
3299.799871	0.097679	0.601140	1470.966919
3299.800768	0.097654	0.601140	1558.562378
3299.801654	0.097657	0.601140	1645.086914
3299.802601	0.097771	0.601140	1737.676025
3299.803507	0.097705	0.601140	1826.196777
3299.804406	0.097712	0.601140	1914.040283
3300.868306	1.013295	0.547761	445.849670
3300.869253	0.590032	0.547761	1004.609741
3300.870170	0.100935	0.547761	1097.167236
3300.871071	0.097599	0.547761	1185.103760
3300.872006	0.097844	0.547761	1276.588135
3300.872915	0.097789	0.547761	1365.478638
3300.873818	0.097679	0.547761	1453.683228
3300.874709	0.097742	0.547761	1540.771118
3300.875659	0.097690	0.547761	1633.577026
3300.876565	0.097749	0.547761	1722.137695
3300.877458	0.097749	0.547761	1809.427612
3300.878378	0.097793	0.547761	1899.397095
3301.863653	1.015847	0.562597	472.368958
3301.864550	0.623873	0.562597	1031.983276
3301.865495	0.101997	0.562597	1128.370483
3301.866408	0.097665	0.562597	1217.538452
3301.867315	0.097679	0.562597	1306.133667
3301.868207	0.097683	0.562597	1393.266968
3301.869152	0.097764	0.562597	1485.653687
3301.870057	0.097617	0.562597	1573.997192
3301.870962	0.097687	0.562597	1662.403687
3301.871851	0.097734	0.562597	1749.289551
3301.872798	0.097753	0.562597	1841.861328
3301.873697	0.097632	0.562597	1929.632324
3302.940116	1.016217	0.574589	455.265198
3302.941012	0.651757	0.574589	1039.239014
3302.941963	0.101224	0.574589	1135.503418
3302.942871	0.097690	0.574589	1224.206299
3302.943775	0.097789	0.574589	1312.607788
3302.944662	0.097775	0.574589	1399.333862
3302.945613	0.097749	0.574589	1492.293213
3302.946518	0.097683	0.574589	1580.696411
3302.947413	0.097767	0.574589	1668.198120
3302.948349	0.097826	0.574589	1759.763184
3302.949238	0.097859	0.574589	1846.759766
3302.950144	0.097753	0.574589	1935.323730
3303.935964	1.025446	0.588922	460.425079
3303.936870	0.635259	0.588922	1035.969604
3303.937760	0.102517	0.588922	1127.209839
3303.938722	0.097636	0.588922	1221.135254
3303.939623	0.097690	0.588922	1309.154297
3303.940514	0.097789	0.588922	1396.284546
3303.941440	0.097789	0.588922	1486.837402
3303.942349	0.097811	0.588922	1575.747803
3303.943256	0.097679	0.588922	1664.343018
3303.944150	0.097771	0.588922	1751.750244
3303.945076	0.097811	0.588922	1842.323486
3303.945978	0.097808	0.588922	1930.545898
3305.011692	1.035084	0.582932	487.524628
3305.012653	0.530526	0.582932	997.360229
3305.013553	0.100236	0.582932	1087.572266
3305.014440	0.097614	0.582932	1174.155518
3305.015392	0.097852	0.582932	1267.310181
3305.016298	0.097679	0.582932	1355.807739
3305.017187	0.097679	0.582932	1442.644775
3305.018122	0.097690	0.582932	1533.985352
3305.019028	0.097793	0.582932	1622.585815
3305.019926	0.097668	0.582932	1710.292114
3305.020819	0.097676	0.582932	1797.516602
3305.021767	0.097749	0.582932	1890.182617
3306.008833	1.030979	0.600600	506.210693
3306.009767	0.539447	0.600600	1010.054199
3306.010665	0.100430	0.600600	1100.240112
3306.011552	0.097643	0.600600	1186.849243
3306.012495	0.097756	0.600600	1279.033447
3306.013390	0.097668	0.600600	1366.446777
3306.014277	0.097753	0.600600	1453.153442
3306.015211	0.097771	0.600600	1544.471558
3306.016122	0.097687	0.600600	1633.464233
3306.017023	0.097789	0.600600	1721.572388
3306.017917	0.097815	0.600600	1809.018921
3306.018873	0.097859	0.600600	1902.572021
3307.081939	1.014276	0.550830	448.310059
3307.082867	0.618395	0.550830	1022.180420
3307.083771	0.101671	0.550830	1114.091187
3307.084705	0.097764	0.550830	1205.402466
3307.085614	0.097837	0.550830	1294.336182
3307.086521	0.097716	0.550830	1382.964600
3307.087408	0.097745	0.550830	1469.664795
3307.088358	0.097837	0.550830	1562.609863
3307.089263	0.097899	0.550830	1651.208618
3307.090149	0.097723	0.550830	1737.791504
3307.091065	0.097775	0.550830	1827.353149
3307.091988	0.097815	0.550830	1917.636353
3308.077003	1.005615	0.570992	439.453857
3308.077954	0.597568	0.570992	1007.741394
3308.078865	0.100957	0.570992	1099.713257
3308.079771	0.097705	0.570992	1188.234009
3308.080659	0.097705	0.570992	1274.996094
3308.081612	0.097833	0.570992	1368.231201
3308.082518	0.097786	0.570992	1456.824951
3308.083409	0.097793	0.570992	1543.958496
3308.084328	0.097789	0.570992	1633.826904
3308.085241	0.097738	0.570992	1723.061768
3308.086148	0.097683	0.570992	1811.660400
3308.087047	0.097749	0.570992	1899.536743
3309.154323	1.043324	0.573393	531.051880
3309.155255	0.524615	0.573393	1019.993530
3309.156150	0.100338	0.573393	1109.796143
3309.157034	0.097756	0.573393	1196.212769
3309.157970	0.097888	0.573393	1287.836060
3309.158870	0.097914	0.573393	1375.958496
3309.159775	0.097804	0.573393	1464.471069
3309.160660	0.097709	0.573393	1550.943359
3309.161601	0.097863	0.573393	1643.031982
3309.162499	0.097742	0.573393	1730.804077
3309.163391	0.097775	0.573393	1818.019043
3309.164326	0.097815	0.573393	1909.476074
3310.149589	1.010834	0.591967	454.875183
3310.150491	0.649113	0.591967	1040.374756
3310.151455	0.102444	0.591967	1139.130615
3310.152354	0.097698	0.591967	1226.960937
3310.153250	0.097738	0.591967	1314.534180
3310.154140	0.097756	0.591967	1401.537354
3310.155084	0.097734	0.591967	1493.798584
3310.155994	0.097712	0.591967	1582.716919
3310.156888	0.097742	0.591967	1670.098022
3310.157808	0.097852	0.591967	1760.121460
3310.158706	0.097771	0.591967	1847.919800
3310.159609	0.097778	0.591967	1936.213623
3311.225812	1.021051	0.581308	460.493958
3311.226715	0.637906	0.581308	1036.523437
3311.227652	0.101759	0.581308	1131.871704
3311.228556	0.097778	0.581308	1220.263306
3311.229459	0.097723	0.581308	1308.507568
3311.230347	0.097705	0.581308	1395.269653
3311.231285	0.097826	0.581308	1487.030396
3311.232186	0.097830	0.581308	1575.174805
3311.233078	0.097694	0.581308	1662.317871
3311.233963	0.097738	0.581308	1748.816040
3311.234880	0.097738	0.581308	1838.441772
3311.235809	0.097698	0.581308	1929.203003
3312.221148	1.027819	0.602606	460.462708
3312.222083	0.602494	0.602606	1023.794495
3312.222981	0.101287	0.602606	1114.749878
3312.223898	0.097786	0.602606	1204.419312
3312.224826	0.097841	0.602606	1295.215332
3312.225734	0.097661	0.602606	1383.891602
3312.226633	0.097775	0.602606	1471.791016
3312.227566	0.097753	0.602606	1562.994263
3312.228471	0.097830	0.602606	1651.530029
3312.229369	0.097778	0.602606	1739.334961
3312.230282	0.097723	0.602606	1828.556396
3312.231177	0.097764	0.602606	1916.054932
3313.295577	1.021242	0.549642	459.558685
3313.296483	0.635244	0.549642	1035.089844
3313.297428	0.101814	0.549642	1131.304077
3313.298331	0.097650	0.549642	1219.482178
3313.299235	0.097654	0.549642	1307.761230
3313.300126	0.097698	0.549642	1394.809937
3313.301077	0.097778	0.549642	1487.797119
3313.301979	0.097690	0.549642	1575.913940
3313.302870	0.097694	0.549642	1662.959351
3313.303788	0.097720	0.549642	1752.666016
3313.304701	0.097731	0.549642	1841.894165
3313.305611	0.097672	0.549642	1930.775757
3314.290921	1.043276	0.577099	483.036926
3314.291844	0.590647	0.577099	1028.204102
3314.292746	0.100986	0.577099	1119.293823
3314.293663	0.097679	0.577099	1208.865845
3314.294589	0.097822	0.577099	1299.449219
3314.295498	0.097676	0.577099	1388.236572
3314.296390	0.097760	0.577099	1475.438477
3314.297332	0.097811	0.577099	1567.576660
3314.298230	0.097775	0.577099	1655.378296
3314.299126	0.097760	0.577099	1742.971313
3314.300016	0.097745	0.577099	1829.964722
3314.300951	0.097767	0.577099	1921.377197
3315.367893	1.015964	0.567491	449.056213
3315.368824	0.612239	0.567491	1019.050476
3315.369719	0.101770	0.567491	1110.134644
3315.370654	0.097742	0.567491	1201.523193
3315.371559	0.097866	0.567491	1290.092163
3315.372466	0.097789	0.567491	1378.787109
3315.373354	0.097760	0.567491	1465.598022
3315.374317	0.097914	0.567491	1559.889038
3315.375219	0.097720	0.567491	1648.032227
3315.376119	0.097749	0.567491	1736.006348
3315.377060	0.097701	0.567491	1827.943359
3315.377968	0.097852	0.567491	1916.792603
3316.363504	1.021915	0.588104	484.387817
3316.364436	0.568682	0.588104	1014.399109
3316.365354	0.100690	0.588104	1106.832275
3316.366246	0.097698	0.588104	1193.978638
3316.367183	0.097756	0.588104	1285.576294
3316.368081	0.097778	0.588104	1373.381226
3316.368979	0.097800	0.588104	1461.205933
3316.369868	0.097731	0.588104	1548.088501
3316.370817	0.097841	0.588104	1640.939209
3316.371729	0.097815	0.588104	1730.146484
3316.372627	0.097782	0.588104	1817.954712
3316.373546	0.097844	0.588104	1907.873535
3317.438471	1.074067	0.581534	533.811462
3317.439392	0.546786	0.581534	1037.401245
3317.440279	0.100770	0.581534	1126.784424
3317.441216	0.097720	0.581534	1218.347778
3317.442128	0.097705	0.581534	1307.454834
3317.443043	0.097753	0.581534	1396.898560
3317.443933	0.097767	0.581534	1483.911499
3317.444880	0.097837	0.581534	1576.563110
3317.445770	0.097672	0.581534	1663.491333
3317.446657	0.097734	0.581534	1750.181763
3317.447570	0.097797	0.581534	1839.470093
3317.448501	0.097716	0.581534	1930.443726
3318.435033	1.020527	0.607053	463.319427
3318.435931	0.641917	0.607053	1039.760498
3318.436880	0.101986	0.607053	1136.545288
3318.437784	0.097705	0.607053	1224.870728
3318.438687	0.097764	0.607053	1313.151367
3318.439603	0.097687	0.607053	1402.632446
3318.440492	0.097676	0.607053	1489.466187
3318.441452	0.097701	0.607053	1583.259521
3318.442352	0.097716	0.607053	1671.203979
3318.443242	0.097782	0.607053	1758.229980
3318.444155	0.097811	0.607053	1847.531738
3318.445075	0.097646	0.607053	1937.366455
3319.508189	1.025065	0.554343	466.404388
3319.509100	0.621442	0.554343	1032.537720
3319.510052	0.101880	0.554343	1129.527344
3319.510959	0.097778	0.554343	1218.212280
3319.511863	0.097720	0.554343	1306.550903
3319.512754	0.097753	0.554343	1393.648560
3319.513681	0.097771	0.554343	1484.282227
3319.514581	0.097822	0.554343	1572.322266
3319.515483	0.097841	0.554343	1660.574463
3319.516372	0.097808	0.554343	1747.525391
3319.517327	0.097863	0.554343	1840.984131
3319.518236	0.097742	0.554343	1929.831299
3320.505043	1.010654	0.584390	450.751831
3320.505938	0.659766	0.584390	1041.242065
3320.506894	0.101045	0.584390	1137.841064
3320.507806	0.097657	0.584390	1226.904663
3320.508717	0.097676	0.584390	1315.887329
3320.509606	0.097723	0.584390	1402.763428
3320.510556	0.097848	0.584390	1495.718994
3320.511465	0.097668	0.584390	1584.499634
3320.512366	0.097625	0.584390	1672.459351
3320.513298	0.097822	0.584390	1763.629639
3320.514199	0.097793	0.584390	1851.741089
3320.515091	0.097683	0.584390	1938.874390
3321.580553	1.075085	0.563008	528.942017
3321.581486	0.530317	0.563008	1023.728149
3321.582394	0.100159	0.563008	1114.672241
3321.583286	0.097650	0.563008	1201.776123
3321.584246	0.097855	0.563008	1295.717163
3321.585147	0.097716	0.563008	1383.759277
3321.586040	0.097756	0.563008	1471.055664
3321.586976	0.097881	0.563008	1562.672119
3321.587881	0.097701	0.563008	1651.091919
3321.588777	0.097738	0.563008	1738.665161
3321.589712	0.097760	0.563008	1830.070801
3321.590614	0.097775	0.563008	1918.263550
3322.578391	1.012976	0.589337	450.774353
3322.579292	0.648970	0.589337	1035.496094
3322.580236	0.102360	0.589337	1132.123535
3322.581146	0.097617	0.589337	1220.955200
3322.582042	0.097734	0.589337	1308.525146
3322.582931	0.097745	0.589337	1395.420776
3322.583865	0.097870	0.589337	1486.831299
3322.584760	0.097742	0.589337	1574.310059
3322.585680	0.097793	0.589337	1664.279541
3322.586576	0.097698	0.589337	1751.816772
3322.587510	0.097782	0.589337	1843.145142
3322.588411	0.097625	0.589337	1931.104858
3323.650517	1.016744	0.577248	452.451233
3323.651419	0.651760	0.577248	1040.338989
3323.652308	0.102858	0.577248	1131.779419
3323.653259	0.097800	0.577248	1224.787476
3323.654164	0.097764	0.577248	1313.263550
3323.655073	0.097756	0.577248	1402.124023
3323.655966	0.097749	0.577248	1489.413940
3323.656912	0.097797	0.577248	1581.929565
3323.657819	0.097841	0.577248	1670.671021
3323.658716	0.097723	0.577248	1758.328857
3323.659655	0.097738	0.577248	1850.104858
3323.660552	0.097756	0.577248	1937.792358
3324.649743	1.076287	0.604685	544.601013
3324.650661	0.537429	0.604685	1037.960937
3324.651565	0.100338	0.604685	1128.666626
3324.652450	0.097657	0.604685	1215.093506
3324.653401	0.097679	0.604685	1307.986694
3324.654313	0.097753	0.604685	1397.137207
3324.655213	0.097683	0.604685	1485.052002
3324.656133	0.097661	0.604685	1574.900269
3324.657029	0.097767	0.604685	1662.499756
3324.657925	0.097628	0.604685	1749.974609
3324.658813	0.097760	0.604685	1836.785522
3324.659761	0.097819	0.604685	1929.517578
3325.720788	1.015305	0.564329	454.856720
3325.721697	0.642795	0.564329	1039.157715
3325.722641	0.102708	0.564329	1136.113647
3325.723552	0.097749	0.564329	1225.162964
3325.724460	0.097749	0.564329	1313.919067
3325.725349	0.097734	0.564329	1400.804932
3325.726287	0.097738	0.564329	1492.483154
3325.727190	0.097760	0.564329	1580.760498
3325.728094	0.097701	0.564329	1669.082520
3325.728983	0.097694	0.564329	1755.932617
3325.729930	0.097822	0.564329	1848.570312
3325.730838	0.097734	0.564329	1937.313110
3326.719967	1.025123	0.595428	460.280334
3326.720906	0.598129	0.595428	1021.923157
3326.721800	0.101517	0.595428	1112.679687
3326.722754	0.097709	0.595428	1205.893799
3326.723660	0.097885	0.595428	1294.577148
3326.724558	0.097734	0.595428	1382.342651
3326.725447	0.097771	0.595428	1469.261108
3326.726381	0.097859	0.595428	1560.661255
3326.727294	0.097760	0.595428	1649.916138
3326.728192	0.097793	0.595428	1737.734253
3326.729115	0.097826	0.595428	1828.027588
3326.730039	0.097844	0.595428	1918.435669
3327.793113	1.024449	0.561816	456.904449
3327.794047	0.608895	0.561816	1025.612549
3327.794940	0.101554	0.561816	1116.300293
3327.795883	0.097742	0.561816	1208.470703
3327.796789	0.097789	0.561816	1297.067871
3327.797696	0.097657	0.561816	1385.643188
3327.798614	0.097731	0.561816	1475.359985
3327.799505	0.097778	0.561816	1562.480469
3327.800445	0.097826	0.561816	1654.436890
3327.801341	0.097745	0.561816	1742.016724
3327.802260	0.097815	0.561816	1831.908691
3327.803160	0.097782	0.561816	1919.912476
3328.793042	1.009948	0.587162	446.396820
3328.793981	0.618805	0.587162	1027.454712
3328.794882	0.101598	0.587162	1118.994385
3328.795817	0.097727	0.587162	1210.369141
3328.796715	0.097701	0.587162	1298.104980
3328.797611	0.097683	0.587162	1385.629028
3328.798532	0.097738	0.587162	1475.645752
3328.799416	0.097716	0.587162	1562.026733
3328.800355	0.097716	0.587162	1653.782104
3328.801262	0.097690	0.587162	1742.387329
3328.802154	0.097720	0.587162	1829.553345
3328.803064	0.097815	0.587162	1918.564941
3329.862876	1.026233	0.575959	458.726074
3329.863810	0.599718	0.575959	1018.862732
3329.864708	0.101396	0.575959	1109.916748
3329.865637	0.097738	0.575959	1200.715332
3329.866544	0.097822	0.575959	1289.440186
3329.867445	0.097712	0.575959	1377.479004
3329.868333	0.097723	0.575959	1464.257324
3329.869284	0.097826	0.575959	1557.289795
3329.870182	0.097808	0.575959	1645.121094
3329.871077	0.097727	0.575959	1732.586792
3329.871967	0.097782	0.575959	1819.612793
3329.872916	0.097906	0.575959	1912.526001
3330.863579	1.021099	0.600910	462.557678
3330.864478	0.646842	0.600910	1044.068604
3330.865419	0.102594	0.600910	1140.609497
3330.866329	0.097720	0.600910	1229.534424
3330.867238	0.097760	0.600910	1318.398315
3330.868140	0.097723	0.600910	1406.544800
3330.869063	0.097822	0.600910	1496.834717
3330.869974	0.097808	0.600910	1585.937500
3330.870879	0.097727	0.600910	1674.380493
3330.871763	0.097712	0.600910	1760.758301
3330.872702	0.097800	0.600910	1852.592773
3330.873602	0.097742	0.600910	1940.560303
3331.933406	1.027610	0.568345	461.396820
3331.934314	0.634720	0.568345	1037.723022
3331.935200	0.102473	0.568345	1128.514282
3331.936154	0.097789	0.568345	1221.805298
3331.937056	0.097698	0.568345	1309.928711
3331.937957	0.097676	0.568345	1397.934570
3331.938881	0.097742	0.568345	1488.247925
3331.939785	0.097720	0.568345	1576.586548
3331.940687	0.097716	0.568345	1664.726440
3331.941575	0.097665	0.568345	1751.452759
3331.942523	0.097756	0.568345	1844.125732
3331.943425	0.097683	0.568345	1932.235840
3332.934104	1.022490	0.601350	460.120605
3332.935004	0.640865	0.601350	1036.899536
3332.935934	0.101938	0.601350	1131.702271
3332.936852	0.097694	0.601350	1221.385498
3332.937746	0.097811	0.601350	1308.828735
3332.938677	0.097808	0.601350	1399.887573
3332.939579	0.097852	0.601350	1488.149658
3332.940481	0.097723	0.601350	1576.296143
3332.941367	0.097712	0.601350	1662.869385
3332.942304	0.097925	0.601350	1754.624878
3332.943204	0.097819	0.601350	1842.661621
3332.944106	0.097701	0.601350	1930.788330
3334.005726	1.027998	0.563906	458.487152
3334.006667	0.595386	0.563906	1018.745117
3334.007572	0.101078	0.563906	1110.220581
3334.008511	0.097778	0.563906	1202.034424
3334.009411	0.097870	0.563906	1290.117310
3334.010307	0.097727	0.563906	1377.680786
3334.011192	0.097723	0.563906	1464.166016
3334.012132	0.097885	0.563906	1556.177490
3334.013032	0.097771	0.563906	1644.171387
3334.013928	0.097771	0.563906	1731.774170
3334.014815	0.097764	0.563906	1818.490601
3334.015777	0.097841	0.563906	1912.613281
3335.006679	1.015598	0.591766	454.987976
3335.007581	0.644246	0.591766	1036.097412
3335.008537	0.102023	0.591766	1133.631104
3335.009434	0.097449	0.591766	1221.042603
3335.010333	0.097515	0.591766	1308.708252
3335.011222	0.097460	0.591766	1395.349976
3335.012153	0.097485	0.591766	1486.108887
3335.013064	0.097507	0.591766	1574.938110
3335.013970	0.097555	0.591766	1663.322876
3335.014860	0.097529	0.591766	1750.123901
3335.015805	0.097654	0.591766	1842.406738
3335.016712	0.097588	0.591766	1930.918945
3336.075472	1.009266	0.579858	441.049408
3336.076400	0.626660	0.579858	1022.590088
3336.077305	0.101521	0.579858	1114.466553
3336.078237	0.097548	0.579858	1205.380859
3336.079144	0.097694	0.579858	1293.989380
3336.080051	0.097595	0.579858	1382.508301
3336.080943	0.097643	0.579858	1469.605713
3336.081873	0.097683	0.579858	1560.451050
3336.082781	0.097599	0.579858	1649.070801
3336.083683	0.097493	0.579858	1737.009155
3336.084573	0.097581	0.579858	1823.855835
3336.085525	0.097617	0.579858	1916.787354
3337.077453	1.009167	0.602582	442.015350
3337.078411	0.588486	0.602582	1005.785278
3337.079317	0.101041	0.602582	1097.328613
3337.080213	0.097621	0.602582	1184.796875
3337.081102	0.097650	0.602582	1271.607910
3337.082035	0.097852	0.602582	1362.903442
3337.082946	0.097668	0.602582	1451.879395
3337.083848	0.097632	0.602582	1539.943359
3337.084775	0.097665	0.602582	1630.478638
3337.085693	0.097723	0.602582	1720.188721
3337.086599	0.097621	0.602582	1808.633179
3337.087497	0.097727	0.602582	1896.392090
3338.146514	1.016356	0.570247	452.278534
3338.147416	0.648809	0.570247	1037.503906
3338.148326	0.102715	0.570247	1130.974365
3338.149266	0.097683	0.570247	1222.796509
3338.150168	0.097606	0.570247	1310.837280
3338.151057	0.097657	0.570247	1397.654785
3338.152006	0.097771	0.570247	1490.439453
3338.152914	0.097701	0.570247	1579.152344
3338.153808	0.097720	0.570247	1666.513794
3338.154728	0.097665	0.570247	1756.365356
3338.155640	0.097738	0.570247	1845.502441
3338.156541	0.097636	0.570247	1933.472046
3339.147979	1.008153	0.602791	442.579193
3339.148949	0.570619	0.602791	996.079468
3339.149849	0.100745	0.602791	1086.749634
3339.150738	0.097584	0.602791	1173.501953
3339.151662	0.097657	0.602791	1263.737427
3339.152579	0.097734	0.602791	1353.359863
3339.153481	0.097592	0.602791	1441.387451
3339.154371	0.097643	0.602791	1528.289551
3339.155314	0.097676	0.602791	1620.397827
3339.156225	0.097636	0.602791	1709.343750
3339.157113	0.097643	0.602791	1796.050537
3339.158057	0.097712	0.602791	1888.291016
3340.218842	1.022080	0.569872	457.891876
3340.219750	0.639459	0.569872	1038.520874
3340.220638	0.102535	0.569872	1129.572266
3340.221606	0.097610	0.569872	1224.058594
3340.222501	0.097716	0.569872	1311.514526
3340.223400	0.097632	0.569872	1399.285522
3340.224292	0.097639	0.569872	1486.379639
3340.225258	0.097723	0.569872	1580.780396
3340.226163	0.097676	0.569872	1669.177002
3340.227062	0.097709	0.569872	1757.017212
3340.227989	0.097705	0.569872	1847.589844
3340.228888	0.097687	0.569872	1935.410278
3341.220296	1.006165	0.593192	439.693909
3341.221261	0.597122	0.593192	1015.916199
3341.222161	0.100767	0.593192	1106.606201
3341.223065	0.097544	0.593192	1194.785889
3341.223953	0.097592	0.593192	1281.447144
3341.224905	0.097643	0.593192	1374.403076
3341.225805	0.097625	0.593192	1462.265137
3341.226702	0.097599	0.593192	1549.811279
3341.227601	0.097584	0.593192	1637.539551
3341.228550	0.097639	0.593192	1730.199097
3341.229463	0.097636	0.593192	1819.340332
3341.230357	0.097588	0.593192	1906.583862
3342.289112	1.019161	0.579411	456.584290
3342.290022	0.629275	0.579411	1029.224365
3342.290958	0.102056	0.579411	1124.748413
3342.291870	0.097687	0.579411	1213.838745
3342.292777	0.097526	0.579411	1302.294434
3342.293667	0.097467	0.579411	1389.040039
3342.294611	0.097573	0.579411	1481.149170
3342.295511	0.097570	0.579411	1568.961792
3342.296404	0.097540	0.579411	1656.065308
3342.297289	0.097511	0.579411	1742.362549
3342.298230	0.097709	0.579411	1834.306519
3342.299137	0.097628	0.579411	1922.855225
3343.290885	1.034191	0.603908	512.958557
3343.291816	0.549437	0.603908	1024.484619
3343.292712	0.100408	0.603908	1114.449951
3343.293595	0.097566	0.603908	1200.600708
3343.294544	0.097742	0.603908	1293.357544
3343.295448	0.097687	0.603908	1381.666382
3343.296357	0.097606	0.603908	1470.390381
3343.297243	0.097650	0.603908	1556.908447
3343.298196	0.097687	0.603908	1650.003906
3343.299106	0.097614	0.603908	1738.832153
3343.300008	0.097632	0.603908	1826.896118
3343.300937	0.097720	0.603908	1917.677734
3344.360140	1.009545	0.570444	441.171051
3344.361040	0.646241	0.570444	1022.788330
3344.362008	0.100627	0.570444	1120.195679
3344.362919	0.097482	0.570444	1209.001465
3344.363812	0.097551	0.570444	1296.114746
3344.364743	0.097639	0.570444	1387.016846
3344.365652	0.097595	0.570444	1475.730957
3344.366546	0.097588	0.570444	1562.974487
3344.367487	0.097643	0.570444	1654.856323
3344.368393	0.097643	0.570444	1743.320679
3344.369286	0.097628	0.570444	1830.502686
3344.370173	0.097599	0.570444	1917.072876
3345.361151	1.038098	0.604286	509.706177
3345.362084	0.538151	0.604286	1011.800659
3345.362982	0.100334	0.604286	1101.901001
3345.363874	0.097614	0.604286	1188.972290
3345.364826	0.097654	0.604286	1281.938721
3345.365734	0.097657	0.604286	1370.611694
3345.366629	0.097679	0.604286	1458.034790
3345.367514	0.097727	0.604286	1544.523193
3345.368451	0.097672	0.604286	1636.041992
3345.369355	0.097712	0.604286	1724.374023
3345.370243	0.097687	0.604286	1811.119873
3345.371202	0.097701	0.604286	1904.815552
3346.432718	1.005480	0.569405	441.405579
3346.433619	0.645941	0.569405	1023.398621
3346.434575	0.101012	0.569405	1119.966064
3346.435486	0.097606	0.569405	1208.885254
3346.436378	0.097639	0.569405	1295.979370
3346.437327	0.097639	0.569405	1388.638916
3346.438223	0.097694	0.569405	1476.172852
3346.439120	0.097665	0.569405	1563.778198
3346.440011	0.097617	0.569405	1650.755127
3346.440953	0.097687	0.569405	1742.776123
3346.441858	0.097599	0.569405	1831.103149
3346.442766	0.097643	0.569405	1919.762817
3347.432399	1.013060	0.597156	448.785675
3347.433291	0.657341	0.597156	1035.134155
3347.434260	0.100708	0.597156	1132.720215
3347.435175	0.097679	0.597156	1222.096924
3347.436079	0.097617	0.597156	1310.342896
3347.436990	0.097690	0.597156	1399.338867
3347.437918	0.097661	0.597156	1489.968384
3347.438824	0.097581	0.597156	1578.376343
3347.439717	0.097705	0.597156	1665.626953
3347.440655	0.097668	0.597156	1757.239990
3347.441557	0.097657	0.597156	1845.327026
3347.442455	0.097676	0.597156	1933.039917
3348.503805	1.038600	0.579157	509.952515
3348.504734	0.544889	0.579157	1016.154297
3348.505640	0.100287	0.579157	1107.014160
3348.506532	0.097555	0.579157	1194.033203
3348.507480	0.097749	0.579157	1286.699219
3348.508379	0.097650	0.579157	1374.486694
3348.509276	0.097603	0.579157	1462.036133
3348.510165	0.097698	0.579157	1548.889404
3348.511095	0.097723	0.579157	1639.772217
3348.512007	0.097676	0.579157	1728.852539
3348.512907	0.097577	0.579157	1816.671753
3348.513851	0.097628	0.579157	1908.832764
3349.503445	1.024882	0.609946	457.097198
3349.504410	0.567861	0.609946	1005.083374
3349.505315	0.100719	0.609946	1096.234131
3349.506215	0.097679	0.609946	1184.145630
3349.507141	0.097830	0.609946	1274.735840
3349.508047	0.097749	0.609946	1363.296509
3349.508950	0.097570	0.609946	1451.401855
3349.509840	0.097614	0.609946	1538.277832
3349.510786	0.097811	0.609946	1630.807251
3349.511691	0.097705	0.609946	1719.230347
3349.512583	0.097614	0.609946	1806.301636
3349.513501	0.097716	0.609946	1896.005005
3350.574554	1.027529	0.571137	462.388153
3350.575469	0.624342	0.571137	1033.661133
3350.576357	0.102195	0.571137	1124.410156
3350.577306	0.097668	0.571137	1217.097534
3350.578204	0.097625	0.571137	1304.764404
3350.579106	0.097709	0.571137	1392.897705
3350.580011	0.097643	0.571137	1481.264404
3350.580945	0.097716	0.571137	1572.531250
3350.581859	0.097654	0.571137	1661.786865
3350.582759	0.097712	0.571137	1749.728027
3350.583682	0.097727	0.571137	1839.930054
3350.584585	0.097584	0.571137	1928.048584
3351.573759	1.062404	0.605007	513.140930
3351.574697	0.538004	0.605007	1017.788818
3351.575603	0.100305	0.605007	1108.665283
3351.576489	0.097625	0.605007	1195.160645
3351.577424	0.097720	0.605007	1286.528564
3351.578331	0.097657	0.605007	1375.103882
3351.579220	0.097672	0.605007	1461.934448
3351.580152	0.097690	0.605007	1552.981934
3351.581055	0.097687	0.605007	1641.193115
3351.581957	0.097654	0.605007	1729.276855
3351.582847	0.097654	0.605007	1816.188721
3351.583789	0.097694	0.605007	1908.216553
3352.646663	1.042899	0.569518	519.363770
3352.647591	0.530775	0.569518	1011.923096
3352.648495	0.100320	0.569518	1102.612183
3352.649386	0.097628	0.569518	1189.598877
3352.650341	0.097789	0.569518	1282.987671
3352.651239	0.097701	0.569518	1370.723511
3352.652141	0.097679	0.569518	1458.830322
3352.653030	0.097639	0.569518	1545.631592
3352.653970	0.097701	0.569518	1637.470947
3352.654880	0.097621	0.569518	1726.305908
3352.655778	0.097668	0.569518	1814.012207
3352.656716	0.097734	0.569518	1905.687012
3353.644506	1.025830	0.600898	459.571838
3353.645419	0.626473	0.600898	1031.541992
3353.646308	0.102206	0.600898	1122.402954
3353.647262	0.097632	0.600898	1215.543701
3353.648170	0.097599	0.600898	1304.163452
3353.649063	0.097654	0.600898	1391.368286
3353.649997	0.097621	0.600898	1482.546143
3353.650903	0.097628	0.600898	1570.997314
3353.651802	0.097610	0.600898	1658.748535
3353.652690	0.097672	0.600898	1745.481323
3353.653647	0.097657	0.600898	1838.939575
3353.654548	0.097625	0.600898	1926.899292
3354.718191	1.049659	0.586775	491.240631
3354.719099	0.603321	0.586775	1039.056519
3354.719986	0.101777	0.586775	1129.333008
3354.720940	0.097551	0.586775	1222.396973
3354.721838	0.097668	0.586775	1310.103271
3354.722728	0.097654	0.586775	1397.015137
3354.723662	0.097716	0.586775	1488.281982
3354.724576	0.097672	0.586775	1577.554321
3354.725474	0.097588	0.586775	1665.188232
3354.726364	0.097625	0.586775	1752.074097
3354.727315	0.097665	0.586775	1844.953369
3354.728221	0.097570	0.586775	1933.351440
3355.715796	1.012606	0.611743	450.609741
3355.716757	0.567766	0.611743	996.232971
3355.717666	0.100602	0.611743	1087.680054
3355.718577	0.097625	0.611743	1176.615967
3355.719467	0.097610	0.611743	1263.488770
3355.720369	0.097683	0.611743	1351.598877
3355.721293	0.097687	0.611743	1441.861450
3355.722187	0.097599	0.611743	1529.114868
3355.723071	0.097672	0.611743	1615.457031
3355.724002	0.097614	0.611743	1706.335205
3355.724907	0.097581	0.611743	1794.645630
3355.725819	0.097650	0.611743	1883.702515
3356.788945	1.008578	0.573723	445.791443
3356.789930	0.545936	0.573723	983.538696
3356.790834	0.100309	0.573723	1074.217896
3356.791734	0.097610	0.573723	1162.066772
3356.792617	0.097614	0.573723	1248.259521
3356.793568	0.097690	0.573723	1341.163086
3356.794476	0.097636	0.573723	1429.816162
3356.795372	0.097551	0.573723	1517.222046
3356.796304	0.097690	0.573723	1608.269531
3356.797210	0.097698	0.573723	1696.783691
3356.798117	0.097720	0.573723	1785.415527
3356.799009	0.097654	0.573723	1872.522705
3357.786843	1.024428	0.605031	459.967957
3357.787773	0.604504	0.605031	1022.157043
3357.788673	0.101298	0.605031	1113.324951
3357.789616	0.097632	0.605031	1205.391724
3357.790520	0.097625	0.605031	1293.644287
3357.791420	0.097694	0.605031	1381.568970
3357.792307	0.097654	0.605031	1468.187866
3357.793250	0.097599	0.605031	1560.223633
3357.794146	0.097592	0.605031	1647.665649
3357.795045	0.097566	0.605031	1735.377441
3357.795957	0.097584	0.605031	1824.374268
3357.796888	0.097709	0.605031	1915.341064
3358.860772	1.019685	0.572184	460.897644
3358.861675	0.636991	0.572184	1036.100464
3358.862565	0.102144	0.572184	1127.008179
3358.863501	0.097482	0.572184	1218.250977
3358.864424	0.097529	0.572184	1308.270508
3358.865329	0.097555	0.572184	1396.557739
3358.866221	0.097581	0.572184	1483.599609
3358.867167	0.097581	0.572184	1575.910889
3358.868070	0.097540	0.572184	1663.989746
3358.868961	0.097555	0.572184	1750.911133
3358.869902	0.097595	0.572184	1842.748291
3358.870803	0.097621	0.572184	1930.704712
3359.857113	1.020762	0.597865	459.342773
3359.858020	0.636617	0.597865	1036.754761
3359.858904	0.102415	0.597865	1127.289185
3359.859849	0.097573	0.597865	1219.495850
3359.860760	0.097570	0.597865	1308.381714
3359.861662	0.097672	0.597865	1396.481934
3359.862590	0.097723	0.597865	1487.169189
3359.863500	0.097742	0.597865	1576.114136
3359.864404	0.097540	0.597865	1664.290527
3359.865291	0.097676	0.597865	1750.928955
3359.866248	0.097665	0.597865	1844.394165
3359.867151	0.097599	0.597865	1932.526001
3360.932334	1.019667	0.585494	478.223724
3360.933270	0.565741	0.585494	1007.757202
3360.934184	0.100551	0.585494	1099.660400
3360.935085	0.097573	0.585494	1187.573853
3360.936023	0.097775	0.585494	1279.286499
3360.936931	0.097592	0.585494	1367.899658
3360.937829	0.097668	0.585494	1455.605957
3360.938714	0.097632	0.585494	1542.010132
3360.939640	0.097731	0.585494	1632.508789
3360.940547	0.097617	0.585494	1721.047607
3360.941444	0.097628	0.585494	1808.620117
3360.942361	0.097603	0.585494	1898.121582
3361.928649	1.009292	0.616742	442.069885
3361.929632	0.542670	0.616742	975.514160
3361.930550	0.100045	0.616742	1067.355591
3361.931451	0.097577	0.616742	1155.272339
3361.932387	0.097676	0.616742	1246.696899
3361.933286	0.097712	0.616742	1334.540283
3361.934180	0.097551	0.616742	1421.751099
3361.935069	0.097581	0.616742	1508.500244
3361.936005	0.097643	0.616742	1599.893921
3361.936899	0.097599	0.616742	1687.147339
3361.937800	0.097584	0.616742	1775.070679
3361.938687	0.097522	0.616742	1861.572632
3363.003348	1.018513	0.575467	454.256897
3363.004252	0.646337	0.575467	1038.545166
3363.005142	0.102598	0.575467	1129.857056
3363.006105	0.097562	0.575467	1223.809570
3363.007011	0.097603	0.575467	1312.237427
3363.007916	0.097588	0.575467	1400.554443
3363.008837	0.097610	0.575467	1490.453125
3363.009731	0.097599	0.575467	1577.706543
3363.010686	0.097551	0.575467	1670.868042
3363.011578	0.097639	0.575467	1757.962158
3363.012470	0.097617	0.575467	1845.036743
3363.013403	0.097698	0.575467	1936.188721
3363.999702	1.013405	0.605805	447.924835
3364.000630	0.619501	0.605805	1022.821533
3364.001527	0.101752	0.605805	1114.092773
3364.002457	0.097603	0.605805	1204.863159
3364.003365	0.097650	0.605805	1293.529541
3364.004273	0.097566	0.605805	1382.119385
3364.005161	0.097654	0.605805	1468.835937
3364.006099	0.097738	0.605805	1560.514160
3364.007007	0.097614	0.605805	1649.147217
3364.007900	0.097592	0.605805	1736.296509
3364.008825	0.097749	0.605805	1826.714355
3364.009723	0.097731	0.605805	1914.476562
3365.074127	1.006794	0.573494	443.996368
3365.075021	0.658253	0.573494	1032.474609
3365.075972	0.101243	0.573494	1128.756348
3365.076876	0.097606	0.573494	1216.992310
3365.077766	0.097639	0.573494	1303.891113
3365.078692	0.097603	0.573494	1394.271118
3365.079605	0.097720	0.573494	1483.489258
3365.080502	0.097606	0.573494	1571.041992
3365.081401	0.097614	0.573494	1658.796509
3365.082337	0.097636	0.573494	1750.183350
3365.083244	0.097570	0.573494	1838.678955
3365.084147	0.097577	0.573494	1926.790894
3366.069984	1.030935	0.598219	465.982635
3366.070900	0.617032	0.598219	1031.184326
3366.071787	0.101927	0.598219	1121.593994
3366.072738	0.097533	0.598219	1214.347900
3366.073651	0.097548	0.598219	1303.408813
3366.074546	0.097507	0.598219	1390.677856
3366.075482	0.097566	0.598219	1481.999512
3366.076386	0.097533	0.598219	1570.169312
3366.077288	0.097555	0.598219	1658.163818
3366.078177	0.097603	0.598219	1744.932495
3366.079117	0.097628	0.598219	1836.703003
3366.080017	0.097570	0.598219	1924.515625
3367.146454	1.024413	0.587778	459.961334
3367.147361	0.633842	0.587778	1034.855591
3367.148251	0.102261	0.587778	1125.867676
3367.149213	0.097588	0.587778	1219.747192
3367.150125	0.097507	0.587778	1308.673828
3367.151021	0.097573	0.587778	1396.099487
3367.151944	0.097628	0.587778	1486.210327
3367.152846	0.097632	0.587778	1574.274292
3367.153745	0.097540	0.587778	1661.963013
3367.154664	0.097592	0.587778	1751.649658
3367.155556	0.097570	0.587778	1838.681763
3367.156477	0.097566	0.587778	1928.539917
3368.141516	1.026383	0.609712	454.687683
3368.142501	0.528098	0.609712	974.864319
3368.143410	0.100115	0.609712	1065.868652
3368.144302	0.097522	0.609712	1152.858276
3368.145231	0.097661	0.609712	1243.585449
3368.146133	0.097749	0.609712	1331.755127
3368.147042	0.097566	0.609712	1420.442505
3368.147933	0.097566	0.609712	1507.373779
3368.148886	0.097683	0.609712	1600.465820
3368.149789	0.097625	0.609712	1688.620728
3368.150680	0.097610	0.609712	1775.591064
3368.151588	0.097588	0.609712	1864.200928
3369.217240	1.032557	0.579673	469.813599
3369.218148	0.625682	0.579673	1037.933105
3369.219088	0.101001	0.579673	1132.874023
3369.220000	0.097544	0.579673	1221.834106
3369.220903	0.097584	0.579673	1309.952637
3369.221791	0.097650	0.579673	1396.666016
3369.222741	0.097646	0.579673	1489.430176
3369.223638	0.097588	0.579673	1576.966553
3369.224524	0.097595	0.579673	1663.435913
3369.225485	0.097760	0.579673	1757.383301
3369.226384	0.097595	0.579673	1845.121338
3369.227283	0.097584	0.579673	1932.849609
3370.213337	1.019260	0.605507	457.647858
3370.214237	0.647842	0.605507	1040.705444
3370.215127	0.102590	0.605507	1132.010864
3370.216080	0.097610	0.605507	1225.033081
3370.216997	0.097592	0.605507	1314.524536
3370.217918	0.097566	0.605507	1404.382690
3370.218808	0.097570	0.605507	1491.219604
3370.219758	0.097625	0.605507	1583.962891
3370.220657	0.097636	0.605507	1671.737183
3370.221540	0.097668	0.605507	1757.978394
3370.222474	0.097661	0.605507	1849.193848
3370.223379	0.097540	0.605507	1937.467773
3371.287759	1.022051	0.578211	454.812622
3371.288745	0.525275	0.578211	972.733398
3371.289655	0.100170	0.578211	1063.887817
3371.290556	0.097573	0.578211	1151.801270
3371.291497	0.097694	0.578211	1243.731445
3371.292392	0.097698	0.578211	1331.170898
3371.293289	0.097533	0.578211	1418.657959
3371.294174	0.097661	0.578211	1505.088013
3371.295101	0.097672	0.578211	1595.630127
3371.296009	0.097668	0.578211	1684.313110
3371.296911	0.097625	0.578211	1772.370361
3371.297797	0.097661	0.578211	1858.898071
3372.283343	1.006978	0.597599	442.063141
3372.284241	0.653390	0.597599	1028.807251
3372.285191	0.101056	0.597599	1124.810425
3372.286112	0.097610	0.597599	1214.709106
3372.287018	0.097654	0.597599	1303.183472
3372.287934	0.097603	0.597599	1392.587402
3372.288846	0.097709	0.597599	1481.697754
3372.289757	0.097603	0.597599	1570.613647
3372.290653	0.097588	0.597599	1658.052368
3372.291594	0.097632	0.597599	1749.923950
3372.292492	0.097617	0.597599	1837.584229
3372.293395	0.097581	0.597599	1925.699463
3373.359332	1.025852	0.590916	467.788544
3373.360237	0.629381	0.590916	1037.378418
3373.361121	0.102308	0.590916	1127.818970
3373.362067	0.097581	0.590916	1220.130127
3373.362981	0.097636	0.590916	1309.369019
3373.363882	0.097628	0.590916	1397.332031
3373.364775	0.097654	0.590916	1484.536865
3373.365718	0.097705	0.590916	1576.672729
3373.366628	0.097599	0.590916	1665.487671
3373.367519	0.097654	0.590916	1752.497192
3373.368455	0.097599	0.590916	1843.849731
3373.369361	0.097588	0.590916	1932.264404
3374.355158	1.018484	0.612331	451.188354
3374.356089	0.609228	0.612331	1018.380066
3374.356991	0.101429	0.612331	1109.869385
3374.357923	0.097665	0.612331	1200.892944
3374.358833	0.097665	0.612331	1289.767944
3374.359736	0.097676	0.612331	1377.969238
3374.360622	0.097625	0.612331	1464.464600
3374.361563	0.097705	0.612331	1556.405029
3374.362464	0.097636	0.612331	1644.374634
3374.363360	0.097540	0.612331	1731.770752
3374.364280	0.097595	0.612331	1821.558350
3374.365166	0.097544	0.612331	1907.982300
3375.430346	1.003561	0.588036	437.552490
3375.431321	0.571630	0.588036	994.891418
3375.432229	0.100697	0.588036	1086.324341
3375.433122	0.097449	0.588036	1173.346069
3375.434010	0.097515	0.588036	1259.939087
3375.434938	0.097588	0.588036	1350.500610
3375.435848	0.097522	0.588036	1439.245605
3375.436749	0.097559	0.588036	1527.145874
3375.437680	0.097599	0.588036	1618.010376
3375.438595	0.097599	0.588036	1707.313354
3375.439496	0.097511	0.588036	1795.170776
3375.440387	0.097559	0.588036	1882.095459
3376.426959	1.002781	0.610635	442.226318
3376.427912	0.584399	0.610635	999.158936
3376.428824	0.100789	0.610635	1091.078125
3376.429730	0.097463	0.610635	1179.380005
3376.430620	0.097526	0.610635	1266.177856
3376.431561	0.097482	0.610635	1357.908081
3376.432468	0.097544	0.610635	1446.380371
3376.433360	0.097566	0.610635	1533.409180
3376.434286	0.097537	0.610635	1623.728149
3376.435188	0.097588	0.610635	1711.752441
3376.436088	0.097445	0.610635	1799.453003
3376.436977	0.097566	0.610635	1886.189087
3377.501139	1.015730	0.581172	454.031311
3377.502134	0.526066	0.581172	977.466614
3377.503031	0.100034	0.581172	1067.197266
3377.503945	0.097562	0.581172	1156.369141
3377.504848	0.097581	0.581172	1244.484375
3377.505803	0.097544	0.581172	1337.638794
3377.506709	0.097676	0.581172	1426.133057
3377.507600	0.097734	0.581172	1513.214355
3377.508530	0.097665	0.581172	1604.042603
3377.509448	0.097639	0.581172	1693.675293
3377.510347	0.097614	0.581172	1781.429810
3377.511282	0.097709	0.581172	1872.787476
3378.496972	1.010823	0.600342	447.794434
3378.497945	0.553323	0.600342	986.177429
3378.498862	0.100331	0.600342	1078.180786
3378.499762	0.097595	0.600342	1166.016479
3378.500691	0.097745	0.600342	1256.821899
3378.501590	0.097797	0.600342	1344.741089
3378.502490	0.097581	0.600342	1432.563599
3378.503381	0.097595	0.600342	1519.520996
3378.504312	0.097665	0.600342	1610.446899
3378.505210	0.097665	0.600342	1698.149902
3378.506112	0.097636	0.600342	1786.217163
3378.507028	0.097606	0.600342	1875.624390
3379.572683	1.011065	0.590598	444.868408
3379.573580	0.647952	0.590598	1026.081055
3379.574568	0.100188	0.590598	1125.066772
3379.575476	0.097577	0.590598	1213.666626
3379.576384	0.097665	0.590598	1302.346191
3379.577318	0.097632	0.590598	1393.534302
3379.578221	0.097687	0.590598	1481.745483
3379.579116	0.097592	0.590598	1569.089966
3379.580005	0.097581	0.590598	1655.839111
3379.580941	0.097676	0.590598	1747.263672
3379.581835	0.097672	0.590598	1834.582520
3379.582738	0.097599	0.590598	1922.714355
3380.568548	1.024475	0.610006	462.038269
3380.569453	0.634801	0.610006	1036.533203
3380.570365	0.102579	0.610006	1130.085571
3380.571303	0.097764	0.610006	1221.787842
3380.572210	0.097665	0.610006	1310.369751
3380.573100	0.097650	0.610006	1397.278320
3380.574031	0.097687	0.610006	1488.224731
3380.574937	0.097676	0.610006	1576.718994
3380.575835	0.097679	0.610006	1664.435181
3380.576728	0.097603	0.610006	1751.594238
3380.577671	0.097712	0.610006	1843.737061
3380.578579	0.097533	0.610006	1932.296997
3381.644069	1.097047	0.584556	581.434937
3381.644987	0.503452	0.584556	1043.604004
3381.645887	0.099785	0.584556	1133.410645
3381.646797	0.097526	0.584556	1222.158936
3381.647695	0.097672	0.584556	1309.868530
3381.648647	0.097628	0.584556	1402.810547
3381.649552	0.097584	0.584556	1491.124268
3381.650451	0.097584	0.584556	1578.852539
3381.651377	0.097628	0.584556	1669.256226
3381.652289	0.097474	0.584556	1758.152832
3381.653203	0.097573	0.584556	1847.334717
3381.654089	0.097570	0.584556	1933.781372
3382.640378	1.037311	0.614095	505.170380
3382.641303	0.570813	0.614095	1033.172363
3382.642201	0.100767	0.614095	1123.660767
3382.643088	0.097592	0.614095	1210.224487
3382.644033	0.097687	0.614095	1302.538452
3382.644936	0.097588	0.614095	1390.660278
3382.645844	0.097643	0.614095	1479.319946
3382.646733	0.097621	0.614095	1566.104858
3382.647682	0.097621	0.614095	1658.747070
3382.648587	0.097617	0.614095	1747.090576
3382.649485	0.097551	0.614095	1834.691650
3382.650429	0.097676	0.614095	1926.897583
3383.715046	1.032810	0.578227	474.059845
3383.715946	0.628759	0.578227	1039.942505
3383.716913	0.101979	0.578227	1138.555908
3383.717815	0.097734	0.578227	1226.712280
3383.718709	0.097665	0.578227	1314.024658
3383.719597	0.097636	0.578227	1400.724976
3383.720541	0.097727	0.578227	1492.979370
3383.721442	0.097646	0.578227	1580.958862
3383.722341	0.097625	0.578227	1668.723267
3383.723229	0.097621	0.578227	1755.410522
3383.724175	0.097698	0.578227	1847.832642
3383.725081	0.097573	0.578227	1936.234009
3384.710914	1.070691	0.603633	518.214355
3384.711844	0.545570	0.603633	1025.594482
3384.712740	0.100367	0.603633	1115.523682
3384.713670	0.097482	0.603633	1206.181641
3384.714570	0.097650	0.603633	1294.066772
3384.715475	0.097548	0.603633	1382.347412
3384.716365	0.097482	0.603633	1469.106079
3384.717312	0.097606	0.603633	1561.539185
3384.718210	0.097526	0.603633	1649.117187
3384.719105	0.097562	0.603633	1736.435425
3384.720039	0.097592	0.603633	1827.585937
3384.720944	0.097698	0.603633	1916.002441
3385.786067	1.012324	0.591826	451.496613
3385.787055	0.530786	0.591826	975.913330
3385.787960	0.100063	0.591826	1066.470825
3385.788857	0.097496	0.591826	1153.925049
3385.789743	0.097555	0.591826	1240.358765
3385.790677	0.097617	0.591826	1331.533203
3385.791583	0.097595	0.591826	1419.954468
3385.792477	0.097621	0.591826	1507.227539
3385.793408	0.097588	0.591826	1598.081909
3385.794311	0.097646	0.591826	1686.256714
3385.795216	0.097522	0.591826	1774.514038
3385.796135	0.097555	0.591826	1864.166992
3386.782156	1.008450	0.614007	444.726318
3386.783070	0.645099	0.614007	1034.346680
3386.783996	0.101594	0.614007	1128.422974
3386.784902	0.097529	0.614007	1216.784546
3386.785798	0.097672	0.614007	1304.298828
3386.786735	0.097800	0.614007	1395.937744
3386.787645	0.097683	0.614007	1484.829346
3386.788548	0.097650	0.614007	1573.007446
3386.789436	0.097665	0.614007	1659.733765
3386.790398	0.097716	0.614007	1753.736572
3386.791306	0.097672	0.614007	1842.422852
3386.792203	0.097625	0.614007	1929.992065
3387.856891	1.057800	0.587109	503.512939
3387.857827	0.563379	0.587109	1030.835693
3387.858720	0.100686	0.587109	1120.748291
3387.859630	0.097529	0.587109	1209.500000
3387.860541	0.097595	0.587109	1298.409180
3387.861448	0.097610	0.587109	1386.941284
3387.862345	0.097628	0.587109	1474.513794
3387.863278	0.097599	0.587109	1565.573486
3387.864184	0.097595	0.587109	1653.994751
3387.865082	0.097548	0.587109	1741.592529
3387.865967	0.097533	0.587109	1827.909180
3387.866913	0.097599	0.587109	1920.237671
3388.853985	1.027247	0.614135	459.179535
3388.854900	0.633307	0.614135	1038.655273
3388.855786	0.102056	0.614135	1129.076538
3388.856718	0.097449	0.614135	1219.898804
3388.857638	0.097625	0.614135	1309.713379
3388.858540	0.097610	0.614135	1397.757446
3388.859431	0.097632	0.614135	1484.747437
3388.860361	0.097646	0.614135	1575.558716
3388.861268	0.097584	0.614135	1664.067627
3388.862164	0.097581	0.614135	1751.499756
3388.863052	0.097522	0.614135	1838.099243
3388.864002	0.097621	0.614135	1930.838989
3389.927374	1.008413	0.580128	442.693329
3389.928283	0.649827	0.580128	1033.385742
3389.929173	0.102612	0.580128	1124.710693
3389.930146	0.097526	0.580128	1219.603149
3389.931058	0.097500	0.580128	1308.523193
3389.931957	0.097540	0.580128	1396.211914
3389.932882	0.097570	0.580128	1486.463745
3389.933781	0.097592	0.580128	1574.198486
3389.934691	0.097559	0.580128	1662.976807
3389.935584	0.097603	0.580128	1750.135864
3389.936519	0.097654	0.580128	1841.442139
3389.937421	0.097639	0.580128	1929.512695
3390.925258	1.003912	0.605950	437.705780
3390.926210	0.616399	0.605950	1024.517578
3390.927109	0.101188	0.605950	1115.485352
3390.928005	0.097511	0.605950	1202.855225
3390.928893	0.097643	0.605950	1289.562012
3390.929841	0.097661	0.605950	1382.144775
3390.930734	0.097632	0.605950	1469.329956
3390.931640	0.097555	0.605950	1557.714722
3390.932532	0.097592	0.605950	1644.766357
3390.933481	0.097632	0.605950	1737.418945
3390.934391	0.097643	0.605950	1826.273926
3390.935292	0.097661	0.605950	1914.266602
3391.998673	1.007205	0.587830	445.184448
3391.999570	0.645011	0.587830	1023.759277
3392.000524	0.101191	0.587830	1120.295898
3392.001418	0.097518	0.587830	1207.477295
3392.002310	0.097581	0.587830	1294.519165
3392.003239	0.097712	0.587830	1385.293945
3392.004161	0.097540	0.587830	1475.226074
3392.005060	0.097599	0.587830	1562.967407
3392.005983	0.097683	0.587830	1653.128906
3392.006890	0.097716	0.587830	1741.757324
3392.007803	0.097636	0.587830	1830.898560
3392.008693	0.097581	0.587830	1917.745239
3392.996306	1.020461	0.610703	458.187195
3392.997310	0.504573	0.610703	964.778198
3392.998215	0.099554	0.610703	1054.875000
3392.999106	0.097548	0.610703	1141.789917
3393.000009	0.097603	0.610703	1229.925049
3393.000941	0.097665	0.610703	1320.948608
3393.001836	0.097610	0.610703	1408.309448
3393.002721	0.097559	0.610703	1494.648804
3393.003655	0.097621	0.610703	1585.826660
3393.004560	0.097573	0.610703	1674.130493
3393.005450	0.097661	0.610703	1761.048950
3393.006377	0.097599	0.610703	1851.523071
3394.069970	1.011716	0.592652	449.202057
3394.070896	0.620262	0.592652	1023.565063
3394.071795	0.101818	0.592652	1115.099121
3394.072742	0.097592	0.592652	1207.518311
3394.073643	0.097632	0.592652	1295.484619
3394.074538	0.097628	0.592652	1382.861816
3394.075423	0.097650	0.592652	1469.282227
3394.076356	0.097709	0.592652	1560.444458
3394.077266	0.097690	0.592652	1649.342773
3394.078169	0.097625	0.592652	1737.497681
3394.079093	0.097720	0.592652	1827.790771
3394.080004	0.097603	0.592652	1916.706665
3395.067858	1.006399	0.618216	443.821930
3395.068753	0.655939	0.618216	1030.887085
3395.069712	0.101312	0.618216	1128.045532
3395.070608	0.097522	0.618216	1215.425171
3395.071504	0.097570	0.618216	1302.847534
3395.072429	0.097705	0.618216	1393.224731
3395.073334	0.097712	0.618216	1481.654419
3395.074232	0.097614	0.618216	1569.311401
3395.075120	0.097584	0.618216	1655.966187
3395.076071	0.097679	0.618216	1748.859375
3395.076969	0.097628	0.618216	1836.529541
3395.077865	0.097573	0.618216	1923.955200
3396.141014	1.015309	0.581284	454.858368
3396.141912	0.649200	0.581284	1037.840332
3396.142857	0.102235	0.581284	1134.452515
3396.143773	0.097606	0.581284	1223.859741
3396.144676	0.097657	0.581284	1312.044434
3396.145564	0.097632	0.581284	1398.741455
3396.146510	0.097646	0.581284	1491.114990
3396.147405	0.097617	0.581284	1578.482422
3396.148287	0.097650	0.581284	1664.609863
3396.149216	0.097672	0.581284	1755.347290
3396.150122	0.097639	0.581284	1843.808350
3396.151024	0.097617	0.581284	1931.859009
3397.139154	1.012277	0.610804	447.426270
3397.140110	0.573735	0.610804	995.917297
3397.141029	0.100463	0.610804	1088.242432
3397.141949	0.097522	0.610804	1177.962646
3397.142836	0.097584	0.610804	1264.519897
3397.143783	0.097592	0.610804	1356.939087
3397.144683	0.097690	0.610804	1444.860474
3397.145566	0.097617	0.610804	1531.056396
3397.146498	0.097683	0.610804	1622.097046
3397.147398	0.097504	0.610804	1709.850342
3397.148293	0.097632	0.610804	1797.230835
3397.149208	0.097643	0.610804	1886.573975
3398.211793	1.018630	0.587714	451.253265
3398.212762	0.554978	0.587714	989.026978
3398.213677	0.100334	0.587714	1080.833008
3398.214573	0.097463	0.587714	1168.160156
3398.215505	0.097584	0.587714	1259.108643
3398.216409	0.097679	0.587714	1347.410889
3398.217310	0.097566	0.587714	1435.317749
3398.218194	0.097628	0.587714	1521.621094
3398.219129	0.097584	0.587714	1612.862305
3398.220032	0.097603	0.587714	1700.997437
3398.220932	0.097555	0.587714	1788.796875
3398.221822	0.097577	0.587714	1875.640381
3399.210473	1.033030	0.607303	480.358856
3399.211375	0.626056	0.607303	1045.061279
3399.212326	0.100668	0.607303	1140.796265
3399.213234	0.097668	0.607303	1229.479248
3399.214139	0.097668	0.607303	1317.869141
3399.215026	0.097603	0.607303	1404.442627
3399.215979	0.097694	0.607303	1497.545044
3399.216890	0.097672	0.607303	1586.524292
3399.217789	0.097701	0.607303	1674.357910
3399.218719	0.097599	0.607303	1765.124878
3399.219618	0.097720	0.607303	1852.974854
3399.220514	0.097581	0.607303	1940.406982
3400.282845	1.026357	0.591061	459.808105
3400.283763	0.620713	0.591061	1029.622559
3400.284656	0.101693	0.591061	1120.434570
3400.285584	0.097537	0.591061	1210.948608
3400.286494	0.097511	0.591061	1299.683594
3400.287394	0.097515	0.591061	1387.446777
3400.288288	0.097482	0.591061	1474.595459
3400.289228	0.097621	0.591061	1566.359009
3400.290141	0.097478	0.591061	1655.356445
3400.291034	0.097544	0.591061	1742.463135
3400.291930	0.097496	0.591061	1829.819824
3400.292868	0.097646	0.591061	1921.412231
3401.281489	1.012310	0.616778	450.477753
3401.282383	0.641993	0.616778	1024.419800
3401.283356	0.100975	0.616778	1122.668823
3401.284251	0.097584	0.616778	1210.006714
3401.285142	0.097606	0.616778	1296.973877
3401.286067	0.097694	0.616778	1387.340942
3401.286972	0.097573	0.616778	1475.644775
3401.287863	0.097636	0.616778	1562.638062
3401.288796	0.097562	0.616778	1653.663696
3401.289721	0.097636	0.616778	1743.976562
3401.290621	0.097544	0.616778	1831.766113
3401.291510	0.097610	0.616778	1918.541260
3402.353615	1.006326	0.584088	443.789642
3402.354511	0.657964	0.584088	1033.325317
3402.355474	0.100704	0.584088	1130.303589
3402.356381	0.097478	0.584088	1218.716187
3402.357276	0.097570	0.584088	1306.041016
3402.358190	0.097621	0.584088	1395.266479
3402.359107	0.097625	0.584088	1484.788208
3402.360012	0.097592	0.584088	1573.108521
3402.360911	0.097537	0.584088	1660.793945
3402.361842	0.097573	0.584088	1751.634644
3402.362744	0.097614	0.584088	1839.682007
3402.363647	0.097559	0.584088	1927.777466
3403.353040	1.009310	0.615545	448.133759
3403.353943	0.650339	0.615545	1035.390259
3403.354885	0.102495	0.615545	1131.940674
3403.355794	0.097540	0.615545	1220.604736
3403.356701	0.097434	0.615545	1308.977417
3403.357592	0.097555	0.615545	1395.898804
3403.358530	0.097592	0.615545	1487.439697
3403.359435	0.097526	0.615545	1575.700439
3403.360338	0.097632	0.615545	1663.861938
3403.361226	0.097551	0.615545	1750.487427
3403.362165	0.097639	0.615545	1842.170654
3403.363069	0.097489	0.615545	1930.300781
3404.424395	1.008366	0.585990	445.697571
3404.425288	0.654723	0.585990	1030.365112
3404.426260	0.100946	0.585990	1128.484619
3404.427155	0.097573	0.585990	1215.812622
3404.428044	0.097548	0.585990	1302.532471
3404.428997	0.097643	0.585990	1395.586060
3404.429898	0.097544	0.585990	1483.473145
3404.430800	0.097661	0.585990	1571.563477
3404.431694	0.097636	0.585990	1658.849609
3404.432638	0.097643	0.585990	1751.024414
3404.433546	0.097665	0.585990	1839.704102
3404.434437	0.097606	0.585990	1926.671265
3405.424590	1.011551	0.609934	446.094208
3405.425564	0.615828	0.609934	1045.910400
3405.426485	0.100272	0.609934	1138.261108
3405.427385	0.097522	0.609934	1226.030884
3405.428272	0.097588	0.609934	1312.591309
3405.429224	0.097573	0.609934	1405.481079
3405.430128	0.097548	0.609934	1493.664062
3405.431041	0.097606	0.609934	1582.778564
3405.431936	0.097639	0.609934	1670.165649
3405.432895	0.097592	0.609934	1763.755981
3405.433796	0.097570	0.609934	1851.666138
3405.434684	0.097628	0.609934	1938.359985
3406.495445	1.017726	0.589466	453.905731
3406.496372	0.616022	0.589466	1024.957886
3406.497265	0.101752	0.589466	1115.822144
3406.498217	0.097504	0.589466	1208.645630
3406.499119	0.097482	0.589466	1296.574097
3406.500015	0.097559	0.589466	1383.986572
3406.500903	0.097562	0.589466	1470.621826
3406.501844	0.097592	0.589466	1562.455444
3406.502754	0.097617	0.589466	1651.287109
3406.503654	0.097445	0.589466	1738.987671
3406.504587	0.097566	0.589466	1830.016724
3406.505495	0.097566	0.589466	1918.606567
3407.495891	1.014954	0.618051	454.699219
3407.496798	0.634973	0.618051	1030.619873
3407.497731	0.102118	0.618051	1125.895874
3407.498650	0.097592	0.618051	1215.582520
3407.499557	0.097581	0.618051	1304.088135
3407.500451	0.097603	0.618051	1391.344849
3407.501393	0.097628	0.618051	1483.310547
3407.502304	0.097610	0.618051	1572.233154
3407.503200	0.097636	0.618051	1659.714600
3407.504092	0.097584	0.618051	1746.759766
3407.505034	0.097603	0.618051	1838.701416
3407.505940	0.097526	0.618051	1927.059692
3408.566487	1.015378	0.590227	454.889557
3408.567390	0.642290	0.590227	1034.877441
3408.568276	0.102587	0.590227	1125.769287
3408.569241	0.097493	0.590227	1219.849731
3408.570137	0.097584	0.590227	1307.285156
3408.571023	0.097584	0.590227	1393.744751
3408.571965	0.097734	0.590227	1485.810547
3408.572862	0.097599	0.590227	1573.356689
3408.573754	0.097650	0.590227	1660.460571
3408.574656	0.097672	0.590227	1748.560791
3408.575589	0.097712	0.590227	1839.726440
3408.576490	0.097595	0.590227	1927.659668
3409.566921	1.006183	0.619167	438.695740
3409.567892	0.579979	0.619167	1001.855591
3409.568798	0.100620	0.619167	1093.017456
3409.569707	0.097548	0.619167	1181.688232
3409.570626	0.097603	0.619167	1271.385010
3409.571511	0.097628	0.619167	1357.785889
3409.572471	0.097592	0.619167	1451.473755
3409.573368	0.097540	0.619167	1538.967407
3409.574257	0.097522	0.619167	1625.664429
3409.575201	0.097610	0.619167	1717.808105
3409.576099	0.097570	0.619167	1805.425537
3409.577018	0.097566	0.619167	1895.088623
3410.637575	1.040654	0.587307	517.205200
3410.638514	0.523315	0.587307	1008.598389
3410.639416	0.099983	0.587307	1098.782959
3410.640305	0.097533	0.587307	1185.489746
3410.641254	0.097661	0.587307	1278.170166
3410.642154	0.097599	0.587307	1366.009155
3410.643054	0.097566	0.587307	1453.818481
3410.643945	0.097548	0.587307	1540.733398
3410.644879	0.097654	0.587307	1631.942017
3410.645778	0.097548	0.587307	1719.637329
3410.646674	0.097588	0.587307	1807.076050
3410.647605	0.097610	0.587307	1897.950806
3411.638248	1.030635	0.618659	469.969452
3411.639184	0.590746	0.618659	1022.907593
3411.640077	0.101272	0.618659	1113.343506
3411.641013	0.097636	0.618659	1204.730347
3411.641914	0.097636	0.618659	1292.699951
3411.642814	0.097625	0.618659	1380.562012
3411.643701	0.097599	0.618659	1467.132202
3411.644646	0.097595	0.618659	1559.359619
3411.645556	0.097555	0.618659	1648.134644
3411.646452	0.097496	0.618659	1735.491333
3411.647385	0.097548	0.618659	1826.503296
3411.648288	0.097657	0.618659	1914.687988
3412.708591	1.045107	0.590920	483.884705
3412.709512	0.583960	0.590920	1021.711853
3412.710449	0.100210	0.590920	1115.608643
3412.711343	0.097566	0.590920	1202.832520
3412.712297	0.097529	0.590920	1295.875488
3412.713202	0.097562	0.590920	1384.169312
3412.714091	0.097577	0.590920	1470.915161
3412.715040	0.097515	0.590920	1563.456543
3412.715942	0.097625	0.590920	1651.513916
3412.716831	0.097621	0.590920	1738.298828
3412.717761	0.097573	0.590920	1829.041992
3412.718668	0.097606	0.590920	1917.570801
3413.709272	1.011138	0.620464	447.933960
3413.710166	0.650142	0.620464	1029.160522
3413.711134	0.101104	0.620464	1127.028687
3413.712035	0.097584	0.620464	1214.952026
3413.712932	0.097588	0.620464	1302.488403
3413.713822	0.097650	0.620464	1389.396973
3413.714757	0.097694	0.620464	1480.740967
3413.715663	0.097628	0.620464	1569.192139
3413.716582	0.097690	0.620464	1658.969604
3413.717470	0.097665	0.620464	1745.695923
3413.718423	0.097632	0.620464	1838.739014
3413.719325	0.097606	0.620464	1926.779785
3414.779598	1.004546	0.590562	436.977478
3414.780550	0.601194	0.590562	1009.314026
3414.781460	0.100715	0.590562	1100.964966
3414.782360	0.097566	0.590562	1188.774292
3414.783250	0.097559	0.590562	1275.601440
3414.784202	0.097610	0.590562	1368.526001
3414.785095	0.097581	0.590562	1455.665405
3414.785992	0.097639	0.590562	1543.247681
3414.786886	0.097625	0.590562	1630.524048
3414.787830	0.097603	0.590562	1722.660889
3414.788729	0.097562	0.590562	1810.369385
3414.789626	0.097533	0.590562	1897.856445
3415.780616	1.071522	0.623969	533.618103
3415.781542	0.535258	0.623969	1029.266602
3415.782449	0.100118	0.623969	1120.073975
3415.783340	0.097474	0.623969	1206.923584
3415.784295	0.097672	0.623969	1300.200439
3415.785200	0.097584	0.623969	1388.514160
3415.786093	0.097562	0.623969	1475.637207
3415.787019	0.097577	0.623969	1565.993408
3415.787925	0.097603	0.623969	1654.421265
3415.788831	0.097515	0.623969	1742.769531
3415.789721	0.097581	0.623969	1829.616211
3415.790661	0.097606	0.623969	1921.366089
3416.851408	1.009713	0.592963	444.273743
3416.852316	0.647794	0.592963	1032.470947
3416.853202	0.102806	0.592963	1123.557373
3416.854185	0.097584	0.592963	1219.482666
3416.855089	0.097570	0.592963	1307.685547
3416.855984	0.097632	0.592963	1395.066040
3416.856924	0.097636	0.592963	1486.843384
3416.857824	0.097657	0.592963	1574.735107
3416.858722	0.097511	0.592963	1662.299927
3416.859616	0.097632	0.592963	1749.582764
3416.860543	0.097610	0.592963	1840.067139
3416.861448	0.097636	0.592963	1928.427246
3417.851344	1.013328	0.618724	448.904114
3417.852256	0.640342	0.618724	1032.895874
3417.853143	0.102671	0.618724	1123.964966
3417.854089	0.097515	0.618724	1216.213867
3417.854994	0.097636	0.618724	1304.573975
3417.855882	0.097577	0.618724	1391.222290
3417.856808	0.097577	0.618724	1481.578491
3417.857715	0.097676	0.618724	1570.170410
3417.858613	0.097537	0.618724	1657.758301
3417.859500	0.097529	0.618724	1744.266846
3417.860449	0.097654	0.618724	1836.940308
3417.861352	0.097617	0.618724	1925.088623
3418.922440	1.004678	0.591432	438.039459
3418.923402	0.617325	0.591432	1031.906494
3418.924317	0.100444	0.591432	1123.813110
3418.925221	0.097489	0.591432	1211.943115
3418.926113	0.097668	0.591432	1299.063354
3418.927059	0.097672	0.591432	1391.461182
3418.927959	0.097606	0.591432	1479.306763
3418.928863	0.097672	0.591432	1567.602295
3418.929753	0.097646	0.591432	1654.507690
3418.930686	0.097716	0.591432	1745.676758
3418.931601	0.097679	0.591432	1835.053467
3418.932488	0.097665	0.591432	1921.682129
3419.922631	1.000576	0.618075	434.250031
3419.923572	0.637511	0.618075	1034.147827
3419.924496	0.100701	0.618075	1127.195312
3419.925399	0.097485	0.618075	1215.224609
3419.926289	0.097588	0.618075	1302.077881
3419.927209	0.097555	0.618075	1391.828369
3419.928115	0.097584	0.618075	1480.239746
3419.929007	0.097548	0.618075	1567.252197
3419.929954	0.097544	0.618075	1659.626343
3419.930854	0.097621	0.618075	1747.485107
3419.931751	0.097566	0.618075	1835.001709
3419.932641	0.097610	0.618075	1921.874512
3420.994002	1.015814	0.591448	453.053131
3420.994932	0.615751	0.591448	1025.701294
3420.995830	0.101609	0.591448	1116.946045
3420.996778	0.097606	0.591448	1209.476685
3420.997686	0.097570	0.591448	1298.069824
3420.998585	0.097566	0.591448	1385.781616
3420.999469	0.097636	0.591448	1472.091431
3421.000402	0.097657	0.591448	1563.205811
3421.001315	0.097592	0.591448	1652.306885
3421.002216	0.097555	0.591448	1740.203857
3421.003136	0.097577	0.591448	1829.974609
3421.004039	0.097712	0.591448	1918.208862
3421.993224	1.063356	0.623787	530.614563
3421.994156	0.525813	0.623787	1020.672241
3421.995064	0.099946	0.623787	1111.423462
3421.995953	0.097430	0.623787	1198.039062
3421.996905	0.097555	0.623787	1290.911377
3421.997813	0.097628	0.623787	1379.557739
3421.998706	0.097599	0.623787	1466.713501
3421.999624	0.097632	0.623787	1556.339478
3422.000535	0.097621	0.623787	1645.272095
3422.001446	0.097584	0.623787	1734.171387
3422.002345	0.097551	0.623787	1821.869995
3422.003269	0.097628	0.623787	1912.078369
3423.065287	1.001096	0.589514	433.474670
3423.066235	0.633098	0.589514	1033.651733
3423.067145	0.100902	0.589514	1125.472656
3423.068053	0.097485	0.589514	1213.989380
3423.068952	0.097555	0.589514	1301.691284
3423.069887	0.097687	0.589514	1393.028442
3423.070793	0.097650	0.589514	1481.499512
3423.071698	0.097606	0.589514	1569.833130
3423.072589	0.097548	0.589514	1656.748047
3423.073538	0.097606	0.589514	1749.376343
3423.074441	0.097551	0.589514	1837.465088
3423.075330	0.097551	0.589514	1924.188232
3424.064211	1.014679	0.619412	453.561493
3424.065118	0.641063	0.619412	1035.005859
3424.066011	0.102554	0.619412	1126.586304
3424.066971	0.097701	0.619412	1220.379639
3424.067880	0.097650	0.619412	1309.143677
3424.068783	0.097636	0.619412	1397.308594
3424.069676	0.097731	0.619412	1484.582153
3424.070611	0.097749	0.619412	1575.977539
3424.071515	0.097665	0.619412	1664.266479
3424.072402	0.097599	0.619412	1750.836670
3424.073338	0.097745	0.619412	1842.326294
3424.074247	0.097636	0.619412	1931.076904
3425.136393	1.070365	0.594352	528.760315
3425.137315	0.557721	0.594352	1042.979004
3425.138207	0.100525	0.594352	1132.647217
3425.139098	0.097467	0.594352	1219.490356
3425.140045	0.097614	0.594352	1311.930420
3425.140954	0.097570	0.594352	1400.621216
3425.141849	0.097544	0.594352	1487.923096
3425.142782	0.097577	0.594352	1578.962402
3425.143682	0.097716	0.594352	1666.906860
3425.144580	0.097559	0.594352	1754.514526
3425.145470	0.097584	0.594352	1841.364502
3425.146402	0.097617	0.594352	1932.343750
3426.135239	1.005205	0.620573	438.269409
3426.136204	0.583726	0.620573	1001.564575
3426.137112	0.100693	0.620573	1092.994141
3426.138016	0.097559	0.620573	1181.187134
3426.138906	0.097573	0.620573	1268.027344
3426.139856	0.097731	0.620573	1360.871582
3426.140759	0.097643	0.620573	1449.043091
3426.141655	0.097614	0.620573	1536.504761
3426.142591	0.097712	0.620573	1627.963623
3426.143495	0.097687	0.620573	1716.272461
3426.144403	0.097617	0.620573	1804.908813
3426.145300	0.097632	0.620573	1892.484619
3427.207643	1.022977	0.594795	458.293793
3427.208545	0.637738	0.594795	1033.533569
3427.209454	0.102506	0.594795	1126.711670
3427.210395	0.097548	0.594795	1218.503906
3427.211294	0.097544	0.594795	1306.195923
3427.212179	0.097577	0.594795	1392.551514
3427.213113	0.097646	0.594795	1483.753296
3427.214029	0.097621	0.594795	1573.173950
3427.214929	0.097555	0.594795	1660.973389
3427.215856	0.097588	0.594795	1751.437378
3427.216758	0.097698	0.594795	1839.560791
3427.217660	0.097617	0.594795	1927.611450
3428.206028	1.007139	0.621979	446.162445
3428.207002	0.556069	0.621979	987.773926
3428.207918	0.100155	0.621979	1079.515869
3428.208839	0.097566	0.621979	1169.374023
3428.209730	0.097668	0.621979	1256.396606
3428.210678	0.097643	0.621979	1348.962036
3428.211568	0.097625	0.621979	1435.847900
3428.212457	0.097723	0.621979	1522.723999
3428.213387	0.097687	0.621979	1613.572754
3428.214289	0.097650	0.621979	1701.653198
3428.215189	0.097683	0.621979	1789.567993
3428.216122	0.097698	0.621979	1880.719971
3429.279465	1.038314	0.594811	475.547913
3429.280397	0.590676	0.594811	1026.058228
3429.281290	0.101169	0.594811	1116.402588
3429.282214	0.097548	0.594811	1206.536621
3429.283136	0.097731	0.594811	1296.644287
3429.284036	0.097632	0.594811	1384.512939
3429.284933	0.097584	0.594811	1472.046021
3429.285865	0.097672	0.594811	1563.076416
3429.286769	0.097734	0.594811	1651.428223
3429.287667	0.097566	0.594811	1739.042358
3429.288554	0.097599	0.594811	1825.612549
3429.289498	0.097679	0.594811	1917.821899
3430.276827	1.026914	0.622631	461.084381
3430.277738	0.628956	0.622631	1034.063477
3430.278625	0.102345	0.622631	1124.843506
3430.279588	0.097573	0.622631	1218.806519
3430.280498	0.097570	0.622631	1307.594849
3430.281388	0.097617	0.622631	1394.474121
3430.282320	0.097672	0.622631	1485.504517
3430.283227	0.097676	0.622631	1574.096436
3430.284132	0.097577	0.622631	1662.403564
3430.285018	0.097540	0.622631	1748.824219
3430.285972	0.097628	0.622631	1841.961548
3430.286874	0.097650	0.622631	1930.041992
3431.350731	1.008442	0.591057	445.731537
3431.351629	0.654818	0.591057	1033.758179
3431.352618	0.100239	0.591057	1132.894775
3431.353528	0.097639	0.591057	1221.746460
3431.354424	0.097657	0.591057	1309.247559
3431.355351	0.097643	0.591057	1399.762451
3431.356263	0.097683	0.591057	1488.849487
3431.357172	0.097603	0.591057	1577.570190
3431.358070	0.097639	0.591057	1665.250122
3431.358982	0.097559	0.591057	1754.223511
3431.359880	0.097515	0.591057	1841.791626
3431.360819	0.097529	0.591057	1933.371582
3432.347846	0.998972	0.623360	432.554932
3432.348808	0.602596	0.623360	1012.252747
3432.349722	0.100529	0.623360	1104.135864
3432.350627	0.097540	0.623360	1192.409790
3432.351521	0.097584	0.623360	1279.650146
3432.352464	0.097657	0.623360	1371.741089
3432.353363	0.097665	0.623360	1459.541748
3432.354258	0.097584	0.623360	1546.879639
3432.355163	0.097551	0.623360	1635.163574
3432.356100	0.097661	0.623360	1726.671997
3432.357008	0.097643	0.623360	1815.331665
3432.357907	0.097687	0.623360	1903.152100
3433.421817	1.023234	0.597225	494.221802
3433.422746	0.556864	0.597225	1011.548462
3433.423656	0.100426	0.597225	1102.936157
3433.424552	0.097617	0.597225	1190.401123
3433.425482	0.097720	0.597225	1281.280518
3433.426378	0.097636	0.597225	1368.761963
3433.427278	0.097701	0.597225	1456.693237
3433.428166	0.097617	0.597225	1543.377319
3433.429115	0.097595	0.597225	1635.995117
3433.430025	0.097720	0.597225	1724.920044
3433.430921	0.097625	0.597225	1812.391602
3433.431848	0.097646	0.597225	1902.909912
3434.418639	1.029650	0.623062	458.194092
3434.419632	0.519393	0.623062	973.951660
3434.420534	0.100056	0.623062	1064.202271
3434.421423	0.097548	0.623062	1150.922119
3434.422373	0.097650	0.623062	1243.689697
3434.423276	0.097533	0.623062	1331.761963
3434.424167	0.097606	0.623062	1418.729126
3434.425056	0.097581	0.623062	1505.478271
3434.425998	0.097610	0.623062	1597.426758
3434.426909	0.097522	0.623062	1686.269287
3434.427811	0.097584	0.623062	1774.290283
3434.428736	0.097621	0.623062	1864.589600
3435.493091	1.024072	0.595778	466.976959
3435.493990	0.639884	0.595778	1042.232666
3435.494919	0.102451	0.595778	1137.409790
3435.495828	0.097643	0.595778	1226.167114
3435.496738	0.097595	0.595778	1314.978760
3435.497634	0.097533	0.595778	1402.368286
3435.498569	0.097646	0.595778	1493.667725
3435.499477	0.097621	0.595778	1582.307495
3435.500387	0.097610	0.595778	1671.132446
3435.501275	0.097537	0.595778	1757.744995
3435.502224	0.097584	0.595778	1850.352417
3435.503125	0.097540	0.595778	1938.236206
3436.489436	1.024925	0.625177	458.141693
3436.490343	0.635713	0.625177	1034.733276
3436.491234	0.102385	0.625177	1125.958496
3436.492192	0.097588	0.625177	1219.447754
3436.493092	0.097570	0.625177	1307.260376
3436.493981	0.097559	0.625177	1393.989990
3436.494911	0.097621	0.625177	1484.777344
3436.495815	0.097709	0.625177	1573.106079
3436.496714	0.097584	0.625177	1660.834351
3436.497603	0.097628	0.625177	1747.625854
3436.498549	0.097683	0.625177	1840.034058
3436.499449	0.097610	0.625177	1927.882935
3437.564155	1.065297	0.597349	515.603516
3437.565059	0.585231	0.597349	1044.652100
3437.566010	0.100536	0.597349	1140.261719
3437.566912	0.097551	0.597349	1228.252930
3437.567799	0.097610	0.597349	1314.832886
3437.568730	0.097639	0.597349	1405.734985
3437.569642	0.097595	0.597349	1494.741821
3437.570545	0.097555	0.597349	1582.833984
3437.571438	0.097599	0.597349	1669.989746
3437.572396	0.097625	0.597349	1763.514038
3437.573297	0.097595	0.597349	1851.447266
3437.574189	0.097654	0.597349	1938.554443
3438.560713	1.010398	0.623993	444.575134
3438.561697	0.556307	0.623993	991.981567
3438.562613	0.100107	0.623993	1083.679932
3438.563524	0.097507	0.623993	1172.509155
3438.564440	0.097570	0.623993	1261.882935
3438.565326	0.097581	0.623993	1348.339355
3438.566265	0.097559	0.623993	1439.946899
3438.567161	0.097566	0.623993	1527.365967
3438.568049	0.097577	0.623993	1614.014282
3438.568969	0.097614	0.623993	1703.818726
3438.569874	0.097511	0.623993	1792.066162
3438.570785	0.097628	0.623993	1881.005371
3439.635928	1.026815	0.596125	463.093658
3439.636830	0.640316	0.596125	1040.658813
3439.637723	0.102594	0.596125	1132.275269
3439.638682	0.097595	0.596125	1225.869141
3439.639597	0.097599	0.596125	1315.172119
3439.640496	0.097650	0.596125	1402.959595
3439.641429	0.097668	0.596125	1494.084229
3439.642334	0.097720	0.596125	1582.520630
3439.643235	0.097628	0.596125	1670.483643
3439.644123	0.097599	0.596125	1757.151489
3439.645067	0.097639	0.596125	1849.322876
3439.645967	0.097603	0.596125	1937.165161
3440.631775	1.026526	0.624299	457.830536
3440.632706	0.606053	0.624299	1022.066284
3440.633604	0.101254	0.624299	1112.992065
3440.634535	0.097562	0.624299	1203.822510
3440.635443	0.097577	0.624299	1292.422363
3440.636348	0.097493	0.624299	1380.653198
3440.637236	0.097577	0.624299	1467.301514
3440.638189	0.097643	0.624299	1560.355103
3440.639089	0.097581	0.624299	1648.177612
3440.639985	0.097584	0.624299	1735.613037
3440.640869	0.097485	0.624299	1821.790039
3440.641806	0.097625	0.624299	1913.264160
3441.706708	1.006578	0.595581	447.927368
3441.707602	0.656558	0.595581	1034.889893
3441.708542	0.101188	0.595581	1130.006348
3441.709456	0.097562	0.595581	1219.178223
3441.710352	0.097599	0.595581	1306.626831
3441.711272	0.097654	0.595581	1396.468384
3441.712187	0.097551	0.595581	1485.727783
3441.713094	0.097643	0.595581	1574.289795
3441.713982	0.097603	0.595581	1660.960815
3441.714928	0.097617	0.595581	1753.306641
3441.715835	0.097617	0.595581	1841.845459
3441.716726	0.097621	0.595581	1928.825684
3442.703063	1.014184	0.625733	455.368835
3442.703960	0.649893	0.625733	1038.322510
3442.704907	0.102063	0.625733	1134.976196
3442.705807	0.097562	0.625733	1222.782227
3442.706705	0.097625	0.625733	1310.448975
3442.707593	0.097504	0.625733	1397.032227
3442.708530	0.097592	0.625733	1488.475464
3442.709427	0.097577	0.625733	1576.001953
3442.710354	0.097599	0.625733	1666.476074
3442.711247	0.097599	0.625733	1753.631836
3442.712177	0.097672	0.625733	1844.466919
3442.713074	0.097614	0.625733	1932.026245
3443.778014	1.024471	0.597486	461.012146
3443.778941	0.608214	0.597486	1024.826660
3443.779837	0.101576	0.597486	1115.838745
3443.780760	0.097657	0.597486	1205.976562
3443.781668	0.097720	0.597486	1294.706055
3443.782573	0.097657	0.597486	1383.086060
3443.783465	0.097690	0.597486	1470.225952
3443.784400	0.097720	0.597486	1561.593872
3443.785308	0.097698	0.597486	1650.303467
3443.786214	0.097661	0.597486	1738.784424
3443.787103	0.097676	0.597486	1825.618164
3443.788064	0.097636	0.597486	1919.445923
3444.774400	1.062488	0.627147	517.431580
3444.775335	0.540092	0.627147	1022.417236
3444.776239	0.100309	0.627147	1113.096436
3444.777125	0.097650	0.627147	1199.614502
3444.778069	0.097745	0.627147	1291.886108
3444.778971	0.097584	0.627147	1379.907104
3444.779863	0.097639	0.627147	1467.001221
3444.780790	0.097621	0.627147	1557.495728
3444.781703	0.097727	0.627147	1646.720581
3444.782609	0.097756	0.627147	1735.287842
3444.783503	0.097668	0.627147	1822.603394
3444.784440	0.097661	0.627147	1914.111816
3445.849042	1.016993	0.598582	454.596039
3445.849943	0.647845	0.598582	1038.304810
3445.850909	0.101418	0.598582	1136.275024
3445.851807	0.097606	0.598582	1223.925415
3445.852704	0.097566	0.598582	1311.442017
3445.853588	0.097614	0.598582	1397.732422
3445.854518	0.097698	0.598582	1488.591309
3445.855424	0.097529	0.598582	1576.952881
3445.856320	0.097588	0.598582	1664.391602
3445.857237	0.097661	0.598582	1753.946899
3445.858146	0.097709	0.598582	1842.764160
3445.859054	0.097529	0.598582	1931.320801
3446.845158	1.035429	0.623876	471.119965
3446.846072	0.610704	0.623876	1029.303711
3446.846962	0.101843	0.623876	1119.944214
3446.847920	0.097603	0.623876	1213.447510
3446.848827	0.097621	0.623876	1301.989624
3446.849719	0.097639	0.623876	1389.083740
3446.850612	0.097621	0.623876	1476.259155
3446.851542	0.097690	0.623876	1567.111206
3446.852444	0.097584	0.623876	1655.132202
3446.853331	0.097570	0.623876	1741.676392
3446.854286	0.097636	0.623876	1834.918335
3446.855188	0.097668	0.623876	1923.015259
3447.920082	1.022516	0.600782	457.064606
3447.921063	0.527534	0.600782	974.575684
3447.921967	0.100188	0.600782	1065.145630
3447.922862	0.097588	0.600782	1152.486816
3447.923798	0.097756	0.600782	1243.986816
3447.924697	0.097716	0.600782	1331.833496
3447.925595	0.097625	0.600782	1419.500244
3447.926509	0.097654	0.600782	1508.755859
3447.927403	0.097650	0.600782	1596.055054
3447.928344	0.097698	0.600782	1687.988647
3447.929248	0.097551	0.600782	1776.175049
3447.930166	0.097548	0.600782	1865.723755
3448.916433	1.012152	0.623610	444.334747
3448.917390	0.580532	0.623610	999.904053
3448.918302	0.100708	0.623610	1091.749756
3448.919208	0.097555	0.623610	1180.134521
3448.920093	0.097694	0.623610	1266.593750
3448.921037	0.097712	0.623610	1358.834229
3448.921942	0.097654	0.623610	1447.210937
3448.922838	0.097559	0.623610	1534.623413
3448.923777	0.097570	0.623610	1626.241211
3448.924671	0.097694	0.623610	1713.579712
3448.925566	0.097570	0.623610	1800.904541
3448.926457	0.097544	0.623610	1887.816162
3449.991375	1.011204	0.599158	447.963226
3449.992279	0.649076	0.599158	1034.727905
3449.993167	0.102799	0.599158	1126.013428
3449.994128	0.097595	0.599158	1219.802490
3449.995037	0.097610	0.599158	1308.529907
3449.995935	0.097533	0.599158	1396.114502
3449.996855	0.097636	0.599158	1485.939209
3449.997775	0.097643	0.599158	1575.770630
3449.998689	0.097544	0.599158	1664.925781
3449.999580	0.097643	0.599158	1751.925537
3450.000510	0.097709	0.599158	1842.794678
3450.001409	0.097559	0.599158	1930.499878
3450.987743	1.021589	0.625310	456.650452
3450.988646	0.648962	0.625310	1042.663574
3450.989532	0.102642	0.625310	1133.604004
3450.990481	0.097614	0.625310	1226.239258
3450.991388	0.097610	0.625310	1314.771362
3450.992295	0.097599	0.625310	1403.293579
3450.993182	0.097672	0.625310	1489.928711
3450.994131	0.097698	0.625310	1582.643921
3450.995039	0.097610	0.625310	1671.273682
3450.995934	0.097643	0.625310	1758.664062
3450.996872	0.097723	0.625310	1850.328613
3450.997772	0.097804	0.625310	1938.352173
3452.062418	1.006450	0.600580	443.844513
3452.063370	0.622540	0.600580	1036.502930
3452.064263	0.101085	0.600580	1126.771973
3452.065162	0.097500	0.600580	1214.424438
3452.066088	0.097474	0.600580	1304.685669
3452.066978	0.097599	0.600580	1391.548706
3452.067913	0.097636	0.600580	1482.837891
3452.068820	0.097500	0.600580	1571.270386
3452.069739	0.097595	0.600580	1660.960449
3452.070630	0.097588	0.600580	1747.911255
3452.071592	0.097559	0.600580	1841.762573
3452.072489	0.097628	0.600580	1929.335083
3453.058776	1.018594	0.626393	457.348602
3453.059673	0.633120	0.626393	1025.257324
3453.060629	0.101056	0.626393	1121.866821
3453.061540	0.097555	0.626393	1210.739380
3453.062431	0.097584	0.626393	1297.686890
3453.063361	0.097603	0.626393	1388.457275
3453.064269	0.097621	0.626393	1477.097046
3453.065171	0.097577	0.626393	1565.111450
3453.066063	0.097581	0.626393	1652.153320
3453.067015	0.097731	0.626393	1745.192993
3453.067919	0.097636	0.626393	1833.455444
3453.068821	0.097657	0.626393	1921.542480
3454.133510	1.071057	0.598369	526.960083
3454.134437	0.545845	0.598369	1032.958130
3454.135336	0.100444	0.598369	1123.257568
3454.136221	0.097595	0.598369	1209.629395
3454.137154	0.097661	0.598369	1300.747192
3454.138066	0.097720	0.598369	1389.867554
3454.138964	0.097621	0.598369	1477.531128
3454.139894	0.097672	0.598369	1568.366211
3454.140798	0.097738	0.598369	1656.721436
3454.141705	0.097595	0.598369	1745.240234
3454.142594	0.097646	0.598369	1832.047974
3454.143547	0.097690	0.598369	1925.146973
3455.129864	1.051919	0.626156	528.063293
3455.130787	0.545299	0.626156	1031.374268
3455.131686	0.100408	0.626156	1121.640747
3455.132575	0.097533	0.626156	1208.347534
3455.133523	0.097628	0.626156	1300.899048
3455.134416	0.097603	0.626156	1388.058105
3455.135320	0.097603	0.626156	1476.290771
3455.136226	0.097628	0.626156	1564.741943
3455.137153	0.097672	0.626156	1655.283936
3455.138055	0.097573	0.626156	1743.295044
3455.138954	0.097562	0.626156	1831.003540
3455.139896	0.097690	0.626156	1923.027954
3456.204769	1.025687	0.604645	467.713379
3456.205676	0.624935	0.604645	1034.529785
3456.206563	0.102213	0.604645	1125.192871
3456.207525	0.097577	0.604645	1219.061890
3456.208429	0.097581	0.604645	1307.274658
3456.209349	0.097657	0.604645	1397.119507
3456.210236	0.097650	0.604645	1483.735229
3456.211170	0.097581	0.604645	1574.875488
3456.212077	0.097573	0.604645	1663.374390
3456.212969	0.097676	0.604645	1750.501221
3456.213903	0.097625	0.604645	1841.682495
3456.214812	0.097588	0.604645	1930.389893
3457.200851	1.018169	0.632803	450.030670
3457.201760	0.636823	0.632803	1028.902344
3457.202673	0.102264	0.632803	1122.269775
3457.203612	0.097621	0.632803	1213.935791
3457.204517	0.097529	0.632803	1302.199829
3457.205406	0.097643	0.632803	1389.004272
3457.206333	0.097701	0.632803	1479.573486
3457.207243	0.097694	0.632803	1568.475098
3457.208150	0.097646	0.632803	1657.040405
3457.209038	0.097566	0.632803	1743.678955
3457.209995	0.097709	0.632803	1837.186279
3457.210893	0.097701	0.632803	1924.922119
3458.275786	1.014606	0.599283	443.382721
3458.276773	0.535752	0.599283	972.169922
3458.277679	0.100181	0.599283	1062.933594
3458.278575	0.097599	0.599283	1150.382202
3458.279504	0.097625	0.599283	1241.075317
3458.280400	0.097705	0.599283	1328.619019
3458.281301	0.097632	0.599283	1416.585327
3458.282188	0.097588	0.599283	1503.145752
3458.283131	0.097701	0.599283	1595.278198
3458.284041	0.097639	0.599283	1684.129883
3458.284947	0.097621	0.599283	1772.574341
3458.285835	0.097628	0.599283	1859.268188
3459.272144	1.007263	0.627695	445.210327
3459.273093	0.590984	0.627695	1006.054077
3459.274000	0.101005	0.627695	1097.665283
3459.274907	0.097522	0.627695	1186.117676
3459.275814	0.097610	0.627695	1274.649780
3459.276747	0.097731	0.627695	1365.832520
3459.277654	0.097614	0.627695	1454.367920
3459.278547	0.097617	0.627695	1541.540039
3459.279487	0.097628	0.627695	1633.310547
3459.280381	0.097694	0.627695	1720.649048
3459.281288	0.097555	0.627695	1809.131348
3459.282178	0.097632	0.627695	1896.023682
3460.346574	1.026423	0.599263	455.731964
3460.347567	0.537880	0.599263	989.846436
3460.348468	0.100353	0.599263	1080.264282
3460.349359	0.097665	0.599263	1167.283569
3460.350297	0.097720	0.599263	1258.944702
3460.351201	0.097643	0.599263	1347.213867
3460.352115	0.097687	0.599263	1436.499512
3460.353009	0.097625	0.599263	1523.775879
3460.353942	0.097683	0.599263	1614.914185
3460.354846	0.097625	0.599263	1703.166748
3460.355736	0.097650	0.599263	1790.075439
3460.356677	0.097749	0.599263	1882.057251
3461.342937	1.022260	0.626220	458.994568
3461.343866	0.609192	0.626220	1024.933838
3461.344772	0.101371	0.626220	1116.775879
3461.345710	0.097661	0.626220	1208.382080
3461.346621	0.097800	0.626220	1297.478149
3461.347530	0.097712	0.626220	1386.298706
3461.348424	0.097646	0.626220	1473.594604
3461.349357	0.097808	0.626220	1564.849121
3461.350263	0.097720	0.626220	1653.383179
3461.351162	0.097679	0.626220	1741.197021
3461.352084	0.097636	0.626220	1831.216919
3461.352973	0.097716	0.626220	1918.086548
3462.417610	1.000547	0.603710	436.238403
3462.418507	0.665175	0.603710	1032.899902
3462.419477	0.100741	0.603710	1130.618652
3462.420378	0.097636	0.603710	1218.588257
3462.421277	0.097621	0.603710	1306.349365
3462.422195	0.097723	0.603710	1396.059448
3462.423112	0.097679	0.603710	1485.631470
3462.424022	0.097643	0.603710	1574.486450
3462.424920	0.097672	0.603710	1662.196045
3462.425854	0.097676	0.603710	1753.425293
3462.426761	0.097782	0.603710	1842.113525
3462.427667	0.097628	0.603710	1930.564697
3463.414727	1.008754	0.629101	441.834106
3463.415684	0.602959	0.629101	1018.865845
3463.416590	0.100844	0.629101	1110.230103
3463.417488	0.097599	0.629101	1197.873901
3463.418377	0.097606	0.629101	1284.645874
3463.419331	0.097698	0.629101	1377.849487
3463.420226	0.097603	0.629101	1465.203735
3463.421128	0.097603	0.629101	1553.241211
3463.422026	0.097548	0.629101	1640.838989
3463.422965	0.097657	0.629101	1732.539307
3463.423871	0.097628	0.629101	1820.990479
3463.424766	0.097661	0.629101	1908.397217
3464.488905	1.009973	0.599158	443.378235
3464.489869	0.584268	0.599158	1006.612244
3464.490783	0.100496	0.599158	1098.465210
3464.491701	0.097694	0.599158	1188.148437
3464.492596	0.097764	0.599158	1275.646973
3464.493550	0.097701	0.599158	1368.854126
3464.494455	0.097694	0.599158	1457.267334
3464.495348	0.097650	0.599158	1544.468872
3464.496272	0.097694	0.599158	1634.738159
3464.497185	0.097687	0.599158	1723.926147
3464.498083	0.097679	0.599158	1811.642334
3464.498969	0.097592	0.599158	1898.108398
3465.485587	1.079806	0.632573	551.780762
3465.486515	0.524454	0.632573	1038.474365
3465.487413	0.100159	0.632573	1128.416870
3465.488301	0.097548	0.632573	1215.039185
3465.489250	0.097617	0.632573	1307.677856
3465.490153	0.097610	0.632573	1395.819580
3465.491052	0.097672	0.632573	1483.626831
3465.491980	0.097782	0.632573	1574.368530
3465.492886	0.097701	0.632573	1662.885986
3465.493794	0.097643	0.632573	1751.545654
3465.494688	0.097690	0.632573	1838.880859
3465.495638	0.097753	0.632573	1931.745972
3466.560466	1.006498	0.596157	444.872009
3466.561364	0.656704	0.596157	1034.592285
3466.562319	0.101074	0.596157	1131.118164
3466.563224	0.097639	0.596157	1219.481567
3466.564121	0.097723	0.596157	1307.139404
3466.565008	0.097712	0.596157	1393.810303
3466.565947	0.097731	0.596157	1485.579468
3466.566861	0.097654	0.596157	1574.835083
3466.567763	0.097643	0.596157	1662.908936
3466.568686	0.097731	0.596157	1753.114380
3466.569587	0.097767	0.596157	1841.202759
3466.570492	0.097701	0.596157	1929.622559
3467.557074	1.009563	0.628577	447.236389
3467.557973	0.656821	0.628577	1037.718750
3467.558918	0.101235	0.628577	1133.386108
3467.559824	0.097606	0.628577	1221.817383
3467.560731	0.097716	0.628577	1310.445801
3467.561634	0.097683	0.628577	1398.653687
3467.562563	0.097815	0.628577	1489.523804
3467.563472	0.097625	0.628577	1578.264526
3467.564364	0.097690	0.628577	1665.404419
3467.565296	0.097694	0.628577	1756.455322
3467.566192	0.097782	0.628577	1844.067993
3467.567093	0.097636	0.628577	1932.037598
3468.631007	1.026486	0.601088	464.997955
3468.631909	0.638687	0.601088	1041.093262
3468.632806	0.102393	0.601088	1132.939453
3468.633758	0.097548	0.601088	1225.804810
3468.634675	0.097566	0.601088	1315.272705
3468.635572	0.097577	0.601088	1402.799194
3468.636534	0.097617	0.601088	1496.706909
3468.637433	0.097603	0.601088	1584.451538
3468.638321	0.097621	0.601088	1671.138794
3468.639255	0.097679	0.601088	1762.371338
3468.640161	0.097599	0.601088	1850.795898
3468.641064	0.097570	0.601088	1938.901245
3469.628660	1.050070	0.628496	493.532684
3469.629588	0.569916	0.628496	1022.414551
3469.630503	0.100646	0.628496	1114.505371
3469.631397	0.097694	0.628496	1201.843872
3469.632338	0.097727	0.628496	1293.805054
3469.633251	0.097584	0.628496	1382.899414
3469.634143	0.097657	0.628496	1470.009888
3469.635068	0.097756	0.628496	1560.434570
3469.635976	0.097734	0.628496	1649.177368
3469.636874	0.097643	0.628496	1736.860596
3469.637767	0.097654	0.628496	1824.065430
3469.638718	0.097830	0.628496	1917.101318
3470.702051	1.030144	0.599218	465.625122
3470.702987	0.594518	0.599218	1022.093811
3470.703880	0.101283	0.599218	1112.539551
3470.704818	0.097650	0.599218	1204.135376
3470.705726	0.097745	0.599218	1292.888184
3470.706627	0.097588	0.599218	1380.814819
3470.707520	0.097606	0.599218	1467.977173
3470.708453	0.097723	0.599218	1559.153076
3470.709362	0.097654	0.599218	1647.920410
3470.710266	0.097709	0.599218	1736.249146
3470.711152	0.097592	0.599218	1822.715210
3470.712096	0.097756	0.599218	1914.997192
3471.699672	1.023263	0.632335	463.538116
3471.700573	0.636438	0.632335	1036.968750
3471.701462	0.102404	0.632335	1128.005493
3471.702426	0.097588	0.632335	1222.080200
3471.703327	0.097551	0.632335	1309.973877
3471.704217	0.097570	0.632335	1396.810791
3471.705144	0.097661	0.632335	1487.342651
3471.706056	0.097625	0.632335	1576.376221
3471.706950	0.097636	0.632335	1663.662354
3471.707843	0.097646	0.632335	1750.860718
3471.708767	0.097698	0.632335	1841.133423
3471.709680	0.097577	0.632335	1930.221191
3472.773082	1.027401	0.600133	465.412689
3472.773981	0.642924	0.600133	1043.401001
3472.774928	0.101444	0.600133	1139.468506
3472.775825	0.097592	0.600133	1227.008179
3472.776720	0.097606	0.600133	1314.365723
3472.777609	0.097617	0.600133	1401.147461
3472.778537	0.097636	0.600133	1491.753174
3472.779447	0.097559	0.600133	1580.531494
3472.780348	0.097668	0.600133	1668.530762
3472.781282	0.097672	0.600133	1759.756470
3472.782185	0.097672	0.600133	1847.954346
3472.783085	0.097621	0.600133	1935.813110
3473.770960	1.026834	0.632166	456.940918
3473.771946	0.547123	0.632166	996.403992
3473.772848	0.100280	0.632166	1086.856201
3473.773745	0.097540	0.632166	1174.349854
3473.774674	0.097544	0.632166	1264.968140
3473.775577	0.097646	0.632166	1353.142944
3473.776478	0.097676	0.632166	1441.148804
3473.777364	0.097577	0.632166	1527.601929
3473.778316	0.097676	0.632166	1620.589233
3473.779227	0.097617	0.632166	1709.518555
3473.780120	0.097621	0.632166	1796.693970
3473.781021	0.097577	0.632166	1884.610718
3474.843854	1.009684	0.595525	447.289948
3474.844809	0.624807	0.595525	1043.980835
3474.845718	0.100917	0.595525	1135.714111
3474.846620	0.097529	0.595525	1223.685547
3474.847507	0.097599	0.595525	1310.255737
3474.848443	0.097628	0.595525	1401.635742
3474.849365	0.097614	0.595525	1491.635376
3474.850270	0.097643	0.595525	1580.002075
3474.851159	0.097650	0.595525	1666.813110
3474.852117	0.097654	0.595525	1760.365479
3474.853020	0.097592	0.595525	1848.490601
3474.853910	0.097595	0.595525	1935.350342
3475.842780	1.031012	0.629499	469.110443
3475.843682	0.635208	0.629499	1042.067627
3475.844574	0.102155	0.629499	1133.189453
3475.845500	0.097496	0.629499	1223.471069
3475.846438	0.097511	0.629499	1314.936401
3475.847358	0.097533	0.629499	1404.666748
3475.848245	0.097529	0.629499	1491.175293
3475.849205	0.097445	0.629499	1584.722534
3475.850102	0.097559	0.629499	1672.232544
3475.850993	0.097606	0.629499	1759.199707
3475.851930	0.097555	0.629499	1850.608643
3475.852836	0.097504	0.629499	1938.947021
3476.914657	1.019711	0.602159	462.948700
3476.915594	0.600124	0.602159	1025.265381
3476.916483	0.101243	0.602159	1115.270142
3476.917403	0.097570	0.602159	1205.034180
3476.918332	0.097705	0.602159	1295.802246
3476.919239	0.097603	0.602159	1384.327759
3476.920141	0.097573	0.602159	1472.338867
3476.921080	0.097636	0.602159	1564.018555
3476.921979	0.097672	0.602159	1651.825806
3476.922878	0.097683	0.602159	1739.642944
3476.923769	0.097646	0.602159	1826.645996
3476.924713	0.097668	0.602159	1918.844971
3477.913811	1.018773	0.635324	452.335297
3477.914796	0.556948	0.635324	1000.929321
3477.915696	0.100316	0.635324	1091.213867
3477.916596	0.097584	0.635324	1179.039673
3477.917526	0.097650	0.635324	1269.854248
3477.918437	0.097742	0.635324	1358.896973
3477.919334	0.097581	0.635324	1446.426758
3477.920225	0.097636	0.635324	1533.420044
3477.921168	0.097716	0.635324	1625.566284
3477.922068	0.097723	0.635324	1713.517334
3477.922967	0.097603	0.635324	1801.261963
3477.923852	0.097646	0.635324	1887.679077
3478.985218	1.071449	0.601442	522.867065
3478.986150	0.535254	0.601442	1021.723694
3478.987077	0.099719	0.601442	1114.163452
3478.987968	0.097584	0.601442	1201.110962
3478.988929	0.097595	0.601442	1294.899902
3478.989825	0.097592	0.601442	1382.341919
3478.990715	0.097584	0.601442	1469.191895
3478.991653	0.097632	0.601442	1560.770508
3478.992566	0.097650	0.601442	1649.925049
3478.993454	0.097643	0.601442	1736.631836
3478.994381	0.097668	0.601442	1827.170532
3478.995304	0.097661	0.601442	1917.311768
3479.985120	1.031129	0.633073	466.070374
3479.986029	0.623500	0.633073	1032.831665
3479.986918	0.102319	0.633073	1123.793579
3479.987882	0.097643	0.633073	1217.921265
3479.988789	0.097698	0.633073	1306.533081
3479.989680	0.097753	0.633073	1393.630737
3479.990605	0.097844	0.633073	1484.136719
3479.991506	0.097756	0.633073	1572.215210
3479.992408	0.097646	0.633073	1660.292358
3479.993314	0.097705	0.633073	1748.813110
3479.994209	0.097698	0.633073	1836.252563
3479.995154	0.097595	0.633073	1928.479980
3481.056455	1.003616	0.603134	436.572845
3481.057451	0.554322	0.603134	988.677979
3481.058349	0.100305	0.603134	1078.752075
3481.059257	0.097544	0.603134	1167.322021
3481.060148	0.097625	0.603134	1254.305420
3481.061105	0.097701	0.603134	1347.805664
3481.062013	0.097592	0.603134	1436.418823
3481.062914	0.097657	0.603134	1524.408203
3481.063841	0.097723	0.603134	1614.997803
3481.064743	0.097775	0.603134	1703.190552
3481.065642	0.097614	0.603134	1790.945068
3481.066532	0.097661	0.603134	1877.863525
3482.056957	1.022805	0.630329	502.197357
3482.057893	0.547375	0.630329	1014.540771
3482.058803	0.100364	0.630329	1105.871826
3482.059694	0.097603	0.630329	1192.835693
3482.060623	0.097625	0.630329	1283.528809
3482.061529	0.097570	0.630329	1371.926880
3482.062434	0.097566	0.630329	1460.223999
3482.063326	0.097500	0.630329	1547.193970
3482.064266	0.097661	0.630329	1638.995483
3482.065177	0.097581	0.630329	1727.891357
3482.066074	0.097562	0.630329	1815.404663
3482.067000	0.097614	0.630329	1905.794800
3483.127293	1.047532	0.602582	495.482513
3483.128213	0.574156	0.602582	1023.706421
3483.129122	0.100613	0.602582	1115.163452
3483.130018	0.097478	0.602582	1202.503784
3483.130971	0.097588	0.602582	1295.505005
3483.131883	0.097643	0.602582	1384.555298
3483.132780	0.097522	0.602582	1472.032471
3483.133709	0.097592	0.602582	1562.695068
3483.134609	0.097632	0.602582	1650.563721
3483.135507	0.097562	0.602582	1738.174683
3483.136433	0.097610	0.602582	1828.561401
3483.137319	0.097592	0.602582	1915.027466
3484.127968	1.033066	0.631429	467.979065
3484.128879	0.620922	0.631429	1033.638672
3484.129767	0.102107	0.631429	1124.309570
3484.130727	0.097723	0.631429	1218.124023
3484.131633	0.097592	0.631429	1306.541992
3484.132522	0.097544	0.631429	1393.258545
3484.133457	0.097606	0.631429	1484.520386
3484.134367	0.097555	0.631429	1573.295410
3484.135281	0.097537	0.631429	1662.443848
3484.136177	0.097595	0.631429	1749.889160
3484.137099	0.097636	0.631429	1839.909058
3484.137996	0.097606	0.631429	1927.461792
3485.198310	1.024167	0.602921	474.189514
3485.199225	0.615051	0.602921	1036.961426
3485.200114	0.101711	0.602921	1127.382935
3485.201056	0.097581	0.602921	1219.303833
3485.201961	0.097573	0.602921	1307.607666
3485.202853	0.097603	0.602921	1394.669189
3485.203798	0.097632	0.602921	1486.931274
3485.204696	0.097581	0.602921	1574.558594
3485.205599	0.097617	0.602921	1662.706909
3485.206490	0.097581	0.602921	1749.651245
3485.207426	0.097698	0.602921	1841.096313
3485.208334	0.097584	0.602921	1929.702759
3486.198754	1.026420	0.632339	469.073822
3486.199649	0.636090	0.632339	1038.374512
3486.200602	0.101785	0.632339	1135.375244
3486.201512	0.097566	0.632339	1224.160278
3486.202402	0.097636	0.632339	1311.055908
3486.203290	0.097701	0.632339	1397.814819
3486.204208	0.097786	0.632339	1487.582031
3486.205108	0.097639	0.632339	1575.457275
3486.205998	0.097628	0.632339	1662.346313
3486.206911	0.097617	0.632339	1751.470825
3486.207828	0.097628	0.632339	1840.995850
3486.208728	0.097643	0.632339	1928.874390
3487.269324	1.000803	0.605132	437.350952
3487.270298	0.574819	0.605132	997.224976
3487.271208	0.100737	0.605132	1088.895874
3487.272097	0.097526	0.605132	1175.596191
3487.273008	0.097599	0.605132	1264.508789
3487.273947	0.097698	0.605132	1356.246948
3487.274858	0.097614	0.605132	1445.172852
3487.275758	0.097643	0.605132	1533.051392
3487.276686	0.097679	0.605132	1623.697876
3487.277580	0.097661	0.605132	1711.006958
3487.278479	0.097551	0.605132	1798.705566
3487.279370	0.097559	0.605132	1885.630249
3488.270297	1.020721	0.634914	453.200317
3488.271221	0.619706	0.634914	1025.808472
3488.272123	0.101525	0.634914	1117.383667
3488.273059	0.097661	0.634914	1208.794434
3488.273969	0.097760	0.634914	1297.756104
3488.274867	0.097595	0.634914	1385.396606
3488.275759	0.097650	0.634914	1472.500488
3488.276708	0.097771	0.634914	1565.285156
3488.277607	0.097625	0.634914	1653.049561
3488.278505	0.097625	0.634914	1740.716309
3488.279392	0.097621	0.634914	1827.306030
3488.280324	0.097672	0.634914	1918.336426
3489.340630	1.015950	0.605668	449.049774
3489.341544	0.639994	0.605668	1034.004150
3489.342437	0.102162	0.605668	1125.234741
3489.343377	0.097661	0.605668	1217.036255
3489.344283	0.097610	0.605668	1305.470825
3489.345180	0.097599	0.605668	1393.016968
3489.346068	0.097632	0.605668	1479.713989
3489.347011	0.097643	0.605668	1571.791138
3489.347922	0.097584	0.605668	1660.690430
3489.348831	0.097573	0.605668	1749.384521
3489.349723	0.097636	0.605668	1836.475342
3489.350685	0.097610	0.605668	1930.375977
3490.341349	1.033740	0.635135	471.385559
3490.342256	0.620380	0.635135	1034.069824
3490.343149	0.102045	0.635135	1125.195679
3490.344097	0.097639	0.635135	1217.757568
3490.345012	0.097720	0.635135	1307.171143
3490.345938	0.097668	0.635135	1397.612183
3490.346827	0.097690	0.635135	1484.458984
3490.347777	0.097676	0.635135	1577.250977
3490.348672	0.097650	0.635135	1664.647827
3490.349562	0.097657	0.635135	1751.562988
3490.350518	0.097683	0.635135	1844.947998
3490.351416	0.097628	0.635135	1932.618164
3491.411920	1.010804	0.600572	443.743134
3491.412867	0.602490	0.600572	1014.301392
3491.413777	0.100869	0.600572	1106.092285
3491.414680	0.097621	0.600572	1194.243896
3491.415574	0.097639	0.600572	1281.533325
3491.416519	0.097654	0.600572	1373.816162
3491.417418	0.097661	0.600572	1461.613525
3491.418333	0.097639	0.600572	1550.953369
3491.419234	0.097617	0.600572	1638.906494
3491.420180	0.097661	0.600572	1731.293945
3491.421094	0.097573	0.600572	1820.475830
3491.421987	0.097712	0.600572	1907.733032
3492.412108	1.008809	0.628440	446.902222
3492.413066	0.568748	0.628440	991.762390
3492.413972	0.100785	0.628440	1083.073486
3492.414881	0.097636	0.628440	1171.824219
3492.415772	0.097639	0.628440	1258.820679
3492.416717	0.097683	0.628440	1351.131226
3492.417626	0.097610	0.628440	1439.858643
3492.418523	0.097646	0.628440	1527.447510
3492.419465	0.097657	0.628440	1619.440796
3492.420363	0.097727	0.628440	1707.199707
3492.421259	0.097657	0.628440	1794.700806
3492.422145	0.097592	0.628440	1881.166870
3493.483014	1.038688	0.604246	520.382629
3493.483943	0.550518	0.604246	1031.813477
3493.484840	0.100382	0.604246	1121.856201
3493.485728	0.097581	0.604246	1208.507690
3493.486666	0.097786	0.604246	1300.230591
3493.487581	0.097570	0.604246	1389.506714
3493.488485	0.097632	0.604246	1477.765869
3493.489371	0.097657	0.604246	1564.290405
3493.490323	0.097581	0.604246	1657.187134
3493.491227	0.097537	0.604246	1745.360229
3493.492116	0.097610	0.604246	1832.135376
3493.493068	0.097679	0.604246	1925.126221
3494.483452	1.039435	0.635667	507.244171
3494.484377	0.563756	0.635667	1028.718628
3494.485299	0.100217	0.635667	1121.119019
3494.486189	0.097621	0.635667	1208.001587
3494.487126	0.097679	0.635667	1299.527222
3494.488023	0.097529	0.635667	1387.010986
3494.488914	0.097577	0.635667	1473.952026
3494.489816	0.097661	0.635667	1562.042358
3494.490757	0.097584	0.635667	1653.869141
3494.491660	0.097570	0.635667	1741.974487
3494.492551	0.097606	0.635667	1828.941650
3494.493513	0.097632	0.635667	1922.863525
3495.554257	1.011284	0.611179	446.987579
3495.555155	0.653112	0.611179	1033.481812
3495.556116	0.100715	0.611179	1130.269287
3495.557015	0.097617	0.611179	1218.027100
3495.557918	0.097654	0.611179	1306.208496
3495.558808	0.097621	0.611179	1393.091064
3495.559750	0.097636	0.611179	1485.063721
3495.560654	0.097694	0.611179	1573.379150
3495.561553	0.097614	0.611179	1661.133667
3495.562486	0.097639	0.611179	1752.230957
3495.563394	0.097657	0.611179	1840.903931
3495.564296	0.097628	0.611179	1928.964600
3496.554205	1.019832	0.638523	457.904358
3496.555102	0.641924	0.638523	1033.709961
3496.556074	0.100697	0.638523	1131.587402
3496.556984	0.097639	0.638523	1220.439087
3496.557875	0.097672	0.638523	1307.464966
3496.558796	0.097610	0.638523	1397.363647
3496.559721	0.097745	0.638523	1487.778076
3496.560627	0.097606	0.638523	1576.209351
3496.561524	0.097577	0.638523	1663.735840
3496.562441	0.097742	0.638523	1753.364990
3496.563341	0.097636	0.638523	1841.236938
3496.564238	0.097614	0.638523	1928.796265
3497.625294	1.014423	0.604782	452.432495
3497.626266	0.552239	0.604782	989.208557
3497.627183	0.100181	0.604782	1081.074219
3497.628082	0.097537	0.604782	1168.759644
3497.628971	0.097617	0.604782	1255.541260
3497.629915	0.097705	0.604782	1347.774902
3497.630818	0.097614	0.604782	1435.919922
3497.631708	0.097676	0.604782	1522.851318
3497.632648	0.097690	0.604782	1614.680298
3497.633551	0.097679	0.604782	1702.884888
3497.634443	0.097603	0.604782	1789.946289
3497.635357	0.097690	0.604782	1879.235352
3498.625482	1.008003	0.633213	441.505310
3498.626447	0.580997	0.633213	1002.167664
3498.627356	0.100635	0.633213	1093.644653
3498.628280	0.097592	0.633213	1183.819214
3498.629166	0.097577	0.633213	1270.272339
3498.630115	0.097562	0.633213	1362.858887
3498.631009	0.097562	0.633213	1450.079590
3498.631902	0.097595	0.633213	1537.232178
3498.632838	0.097628	0.633213	1628.612183
3498.633746	0.097643	0.633213	1717.271851
3498.634645	0.097650	0.633213	1805.059326
3498.635536	0.097592	0.633213	1892.013428
3499.696870	1.035666	0.603948	478.477905
3499.697769	0.624844	0.603948	1040.212402
3499.698727	0.101770	0.603948	1137.708130
3499.699625	0.097679	0.603948	1225.424316
3499.700524	0.097625	0.603948	1313.188721
3499.701410	0.097676	0.603948	1399.729492
3499.702348	0.097698	0.603948	1491.369995
3499.703256	0.097679	0.603948	1580.062988
3499.704160	0.097628	0.603948	1668.318848
3499.705054	0.097742	0.603948	1755.699951
3499.706007	0.097734	0.603948	1848.840820
3499.706909	0.097595	0.603948	1936.871704
3500.695782	1.035399	0.635397	473.177368
3500.696712	0.588864	0.635397	1020.820496
3500.697608	0.101078	0.635397	1111.386230
3500.698540	0.097614	0.635397	1202.362061
3500.699446	0.097734	0.635397	1290.909424
3500.700348	0.097668	0.635397	1379.006348
3500.701237	0.097603	0.635397	1465.775024
3500.702190	0.097665	0.635397	1558.849609
3500.703088	0.097581	0.635397	1646.476929
3500.703987	0.097646	0.635397	1734.261108
3500.704875	0.097672	0.635397	1820.993896
3500.705807	0.097694	0.635397	1912.044800
3501.768140	1.007347	0.611299	441.218201
3501.769104	0.575922	0.611299	996.406677
3501.770027	0.100367	0.611299	1089.045776
3501.770927	0.097548	0.611299	1176.838623
3501.771816	0.097577	0.611299	1263.584473
3501.772769	0.097679	0.611299	1356.672974
3501.773669	0.097551	0.611299	1444.469116
3501.774560	0.097606	0.611299	1531.436279
3501.775500	0.097628	0.611299	1623.206787
3501.776399	0.097581	0.611299	1710.931763
3501.777301	0.097555	0.611299	1798.926270
3501.778208	0.097522	0.611299	1887.378662
3502.766817	1.019623	0.639699	466.987244
3502.767721	0.635262	0.639699	1041.264404
3502.768607	0.102330	0.639699	1131.929077
3502.769544	0.097665	0.639699	1223.441040
3502.770457	0.097592	0.639699	1312.542114
3502.771383	0.097606	0.639699	1402.925415
3502.772270	0.097592	0.639699	1489.489136
3502.773241	0.097628	0.639699	1584.286133
3502.774150	0.097650	0.639699	1673.050171
3502.775038	0.097668	0.639699	1759.779785
3502.775985	0.097683	0.639699	1852.285645
3502.776902	0.097610	0.639699	1941.793945
3503.839462	1.039665	0.603323	483.444427
3503.840373	0.608280	0.603323	1037.587524
3503.841259	0.101766	0.603323	1127.752563
3503.842230	0.097636	0.603323	1222.556641
3503.843139	0.097599	0.603323	1311.274048
3503.844036	0.097665	0.603323	1398.879395
3503.844968	0.097654	0.603323	1489.892700
3503.845872	0.097687	0.603323	1578.201538
3503.846774	0.097566	0.603323	1666.206055
3503.847662	0.097621	0.603323	1752.893311
3503.848611	0.097720	0.603323	1845.629395
3503.849514	0.097614	0.603323	1933.774414
3504.837321	1.003096	0.640493	436.346588
3504.838274	0.597744	0.640493	1005.996826
3504.839188	0.100730	0.640493	1098.063965
3504.840101	0.097559	0.640493	1187.135010
3504.840990	0.097628	0.640493	1273.926514
3504.841938	0.097606	0.640493	1366.457153
3504.842846	0.097555	0.640493	1455.036987
3504.843739	0.097570	0.640493	1542.166626
3504.844657	0.097570	0.640493	1631.735474
3504.845566	0.097709	0.640493	1720.552734
3504.846473	0.097614	0.640493	1809.088135
3504.847368	0.097606	0.640493	1896.445679
3505.910739	1.011387	0.603057	448.044281
3505.911727	0.538579	0.603057	980.160400
3505.912629	0.100378	0.603057	1070.701782
3505.913524	0.097562	0.603057	1158.020020
3505.914407	0.097592	0.603057	1244.193359
3505.915365	0.097650	0.603057	1337.742187
3505.916265	0.097672	0.603057	1425.647095
3505.917159	0.097650	0.603057	1512.946289
3505.918083	0.097705	0.603057	1603.225830
3505.918983	0.097775	0.603057	1691.223022
3505.919884	0.097712	0.603057	1779.261841
3505.920773	0.097742	0.603057	1866.154175
3506.908646	1.030005	0.637741	467.622192
3506.909582	0.596385	0.637741	1025.838989
3506.910471	0.101268	0.637741	1115.866577
3506.911407	0.097577	0.637741	1207.198608
3506.912322	0.097577	0.637741	1296.481445
3506.913224	0.097588	0.637741	1384.505737
3506.914120	0.097581	0.637741	1471.937988
3506.915066	0.097540	0.637741	1564.211060
3506.915968	0.097621	0.637741	1652.265015
3506.916864	0.097584	0.637741	1739.700439
3506.917783	0.097654	0.637741	1829.444336
3506.918692	0.097654	0.637741	1918.211670
3507.982313	1.027548	0.607215	471.644348
3507.983221	0.613261	0.607215	1028.484863
3507.984113	0.101843	0.607215	1119.329102
3507.985050	0.097683	0.607215	1210.858154
3507.985965	0.097639	0.607215	1300.197998
3507.986864	0.097705	0.607215	1388.034912
3507.987749	0.097668	0.607215	1474.471436
3507.988704	0.097731	0.607215	1567.804321
3507.989606	0.097672	0.607215	1655.904541
3507.990494	0.097610	0.607215	1742.582153
3507.991449	0.097742	0.607215	1835.925537
3507.992355	0.097679	0.607215	1924.423096
3508.979423	1.033927	0.638994	470.436768
3508.980327	0.626543	0.638994	1036.831543
3508.981266	0.101221	0.638994	1131.877808
3508.982173	0.097690	0.638994	1220.483032
3508.983076	0.097577	0.638994	1308.594971
3508.983993	0.097639	0.638994	1398.130127
3508.984883	0.097665	0.638994	1485.051758
3508.985836	0.097628	0.638994	1578.091431
3508.986730	0.097668	0.638994	1665.406982
3508.987621	0.097672	0.638994	1752.432861
3508.988563	0.097712	0.638994	1844.477905
3508.989454	0.097625	0.638994	1931.461304
3510.053575	1.005707	0.605317	439.493866
3510.054558	0.549159	0.605317	979.317139
3510.055460	0.100312	0.605317	1069.799072
3510.056363	0.097551	0.605317	1157.887817
3510.057249	0.097540	0.605317	1244.308472
3510.058203	0.097625	0.605317	1337.442261
3510.059112	0.097632	0.605317	1426.189575
3510.060002	0.097529	0.605317	1512.990601
3510.060923	0.097592	0.605317	1602.872437
3510.061828	0.097712	0.605317	1691.302124
3510.062736	0.097621	0.605317	1779.941895
3510.063629	0.097573	0.605317	1867.074829
3511.050190	1.005187	0.641689	442.282135
3511.051145	0.579536	0.641689	995.739136
3511.052056	0.100701	0.641689	1087.477417
3511.052962	0.097522	0.641689	1175.832275
3511.053854	0.097515	0.641689	1262.815308
3511.054813	0.097661	0.641689	1356.472290
3511.055720	0.097518	0.641689	1444.921387
3511.056614	0.097650	0.641689	1532.220581
3511.057558	0.097617	0.641689	1624.371216
3511.058457	0.097617	0.641689	1712.129028
3511.059352	0.097606	0.641689	1799.486572
3511.060243	0.097566	0.641689	1886.417847
3512.124895	1.028617	0.602074	462.877655
3512.125827	0.599546	0.602074	1021.654419
3512.126728	0.101228	0.602074	1112.860840
3512.127667	0.097592	0.602074	1204.499268
3512.128576	0.097595	0.602074	1293.213379
3512.129480	0.097581	0.602074	1381.426270
3512.130367	0.097537	0.602074	1467.941284
3512.131311	0.097712	0.602074	1560.181763
3512.132222	0.097570	0.602074	1649.067627
3512.133113	0.097595	0.602074	1736.024902
3512.134044	0.097566	0.602074	1826.858765
3512.134948	0.097701	0.602074	1915.180908
3513.121513	1.035524	0.636799	474.269836
3513.122419	0.621218	0.636799	1037.093506
3513.123307	0.102136	0.636799	1127.790527
3513.124268	0.097632	0.636799	1221.614746
3513.125163	0.097511	0.636799	1308.887085
3513.126067	0.097603	0.636799	1397.119751
3513.126957	0.097610	0.636799	1483.992554
3513.127902	0.097705	0.636799	1576.323853
3513.128805	0.097625	0.636799	1664.478760
3513.129708	0.097617	0.636799	1752.627075
3513.130636	0.097778	0.636799	1843.365356
3513.131530	0.097760	0.636799	1930.762817
3514.195950	1.031221	0.609011	485.704926
3514.196852	0.603523	0.609011	1030.082642
3514.197790	0.101082	0.609011	1124.897095
3514.198702	0.097581	0.609011	1213.890625
3514.199602	0.097679	0.609011	1301.802124
3514.200496	0.097643	0.609011	1389.094849
3514.201461	0.097782	0.609011	1483.454468
3514.202366	0.097584	0.609011	1571.768188
3514.203258	0.097657	0.609011	1658.878662
3514.204185	0.097760	0.609011	1749.502197
3514.205098	0.097657	0.609011	1838.663452
3514.205995	0.097698	0.609011	1926.298340
3515.192552	1.040079	0.634845	480.516663
3515.193464	0.606954	0.634845	1034.059082
3515.194352	0.101927	0.634845	1124.570679
3515.195319	0.097687	0.634845	1219.033813
3515.196216	0.097694	0.634845	1306.665405
3515.197102	0.097672	0.634845	1393.202881
3515.198045	0.097679	0.634845	1485.314575
3515.198958	0.097603	0.634845	1574.425659
3515.199877	0.097650	0.634845	1664.166138
3515.200776	0.097665	0.634845	1751.966797
3515.201725	0.097646	0.634845	1844.633301
3515.202644	0.097581	0.634845	1934.309814
3516.267020	1.042247	0.608371	525.292725
3516.267941	0.543314	0.608371	1025.685059
3516.268833	0.100415	0.608371	1115.255249
3516.269730	0.097562	0.608371	1202.768555
3516.270668	0.097603	0.608371	1294.319702
3516.271575	0.097551	0.608371	1382.798706
3516.272479	0.097551	0.608371	1470.985107
3516.273366	0.097599	0.608371	1557.555298
3516.274331	0.097632	0.608371	1651.770020
3516.275241	0.097555	0.608371	1740.545044
3516.276133	0.097603	0.608371	1827.606445
3516.277067	0.097617	0.608371	1918.780884
3517.263633	1.055555	0.639046	537.277710
3517.264562	0.515317	0.639046	1016.007568
3517.265465	0.100045	0.639046	1106.348389
3517.266352	0.097679	0.639046	1192.990112
3517.267292	0.097745	0.639046	1284.870728
3517.268192	0.097668	0.639046	1372.772339
3517.269097	0.097606	0.639046	1461.105957
3517.270003	0.097577	0.639046	1549.510620
3517.270933	0.097679	0.639046	1640.352539
3517.271842	0.097636	0.639046	1729.103271
3517.272740	0.097628	0.639046	1816.773437
3517.273666	0.097657	0.639046	1907.204224
3518.338015	1.026702	0.604790	462.015717
3518.338926	0.621943	0.604790	1028.606079
3518.339818	0.102081	0.604790	1119.662598
3518.340760	0.097581	0.604790	1211.583496
3518.341678	0.097511	0.604790	1301.098633
3518.342582	0.097643	0.604790	1389.367676
3518.343472	0.097657	0.604790	1476.282837
3518.344428	0.097701	0.604790	1569.685425
3518.345323	0.097665	0.604790	1657.095459
3518.346209	0.097621	0.604790	1743.587524
3518.347143	0.097632	0.604790	1834.775635
3518.348039	0.097584	0.604790	1922.211060
3519.334883	1.030375	0.636319	470.881256
3519.335801	0.608873	0.636319	1029.826904
3519.336695	0.101678	0.636319	1120.727417
3519.337636	0.097742	0.636319	1212.702393
3519.338546	0.097734	0.636319	1301.640625
3519.339460	0.097734	0.636319	1390.969849
3519.340348	0.097657	0.636319	1477.689697
3519.341289	0.097782	0.636319	1569.702515
3519.342188	0.097687	0.636319	1657.522949
3519.343113	0.097712	0.636319	1747.906860
3519.344004	0.097742	0.636319	1834.994751
3519.344952	0.097723	0.636319	1927.636475
3520.409294	1.003872	0.610522	441.703705
3520.410299	0.509912	0.610522	954.165283
3520.411208	0.099657	0.610522	1044.753418
3520.412112	0.097559	0.610522	1132.946411
3520.413020	0.097632	0.610522	1221.596069
3520.413948	0.097595	0.610522	1312.164429
3520.414861	0.097639	0.610522	1401.308960
3520.415747	0.097555	0.610522	1487.742676
3520.416672	0.097643	0.610522	1578.062256
3520.417572	0.097650	0.610522	1665.947388
3520.418479	0.097639	0.610522	1754.506104
3520.419371	0.097650	0.610522	1841.609985
3521.405639	1.002041	0.640803	434.885773
3521.406596	0.601458	0.640803	1010.480591
3521.407505	0.100818	0.640803	1102.124023
3521.408415	0.097668	0.640803	1191.002319
3521.409301	0.097657	0.640803	1277.526855
3521.410234	0.097749	0.640803	1368.726685
3521.411138	0.097657	0.640803	1457.009033
3521.412028	0.097654	0.640803	1543.920898
3521.412931	0.097720	0.640803	1632.161865
3521.413870	0.097698	0.640803	1723.900024
3521.414781	0.097617	0.640803	1812.829346
3521.415680	0.097570	0.640803	1900.544434
3522.480336	1.008435	0.611291	443.711395
3522.481272	0.613312	0.611291	1017.771240
3522.482174	0.101591	0.611291	1109.405884
3522.483061	0.097731	0.611291	1196.093018
3522.484007	0.097848	0.611291	1288.657104
3522.484924	0.097855	0.611291	1378.390381
3522.485847	0.097782	0.611291	1468.643188
3522.486736	0.097819	0.611291	1555.603882
3522.487670	0.097808	0.611291	1646.956177
3522.488581	0.097789	0.611291	1736.042236
3522.489469	0.097709	0.611291	1822.807617
3522.490376	0.097804	0.611291	1911.515869
3523.476969	1.033158	0.639292	472.153168
3523.477899	0.585908	0.639292	1017.047729
3523.478795	0.101195	0.639292	1107.718506
3523.479728	0.097738	0.639292	1198.908081
3523.480634	0.097745	0.639292	1287.465332
3523.481542	0.097764	0.639292	1376.234741
3523.482429	0.097712	0.639292	1462.905640
3523.483364	0.098016	0.639292	1554.550903
3523.484273	0.097866	0.639292	1643.511230
3523.485169	0.097826	0.639292	1731.163208
3523.486074	0.097815	0.639292	1819.685791
3523.486990	0.097881	0.639292	1909.344604
3524.551132	1.029650	0.603186	466.431274
3524.552037	0.628370	0.603186	1035.106445
3524.552997	0.101569	0.603186	1132.612305
3524.553898	0.097789	0.603186	1220.720459
3524.554797	0.097767	0.603186	1308.613281
3524.555685	0.097841	0.603186	1395.495728
3524.556620	0.097906	0.603186	1487.038330
3524.557531	0.097837	0.603186	1576.167725
3524.558428	0.097771	0.603186	1663.868286
3524.559348	0.097720	0.603186	1753.770386
3524.560260	0.097837	0.603186	1842.997681
3524.561169	0.097793	0.603186	1931.891479
3525.547992	1.012932	0.633516	451.767761
3525.548891	0.643345	0.633516	1030.134766
3525.549825	0.101301	0.633516	1124.750122
3525.550737	0.097760	0.633516	1213.907227
3525.551637	0.097789	0.633516	1301.917603
3525.552556	0.097852	0.633516	1391.843140
3525.553475	0.097800	0.633516	1481.721558
3525.554387	0.097694	0.633516	1570.818604
3525.555287	0.097753	0.633516	1658.796021
3525.556231	0.097885	0.633516	1751.198975
3525.557132	0.097786	0.633516	1839.303833
3525.558033	0.097826	0.633516	1927.444946
3526.622738	1.066256	0.608625	544.856873
3526.623666	0.521462	0.608625	1028.773926
3526.624570	0.100298	0.608625	1119.443237
3526.625460	0.097731	0.608625	1206.423584
3526.626393	0.097947	0.608625	1297.807983
3526.627303	0.097870	0.608625	1386.869629
3526.628197	0.097870	0.608625	1474.365234
3526.629114	0.097855	0.608625	1564.098511
3526.630038	0.097932	0.608625	1654.587769
3526.630940	0.097800	0.608625	1742.803589
3526.631832	0.097819	0.608625	1830.057739
3526.632763	0.097936	0.608625	1921.235962
3527.619812	1.029434	0.635067	468.392303
3527.620743	0.601337	0.635067	1028.236694
3527.621635	0.101470	0.635067	1118.747681
3527.622560	0.097646	0.635067	1209.070679
3527.623466	0.097822	0.635067	1297.697632
3527.624367	0.097764	0.635067	1385.782715
3527.625259	0.097712	0.635067	1472.942139
3527.626210	0.097808	0.635067	1565.957153
3527.627112	0.097753	0.635067	1654.130127
3527.628013	0.097731	0.635067	1742.185547
3527.628900	0.097731	0.635067	1828.872681
3527.629847	0.097844	0.635067	1921.531128
3528.693723	1.026259	0.612870	460.790100
3528.694637	0.629575	0.612870	1036.221802
3528.695572	0.102140	0.612870	1131.722656
3528.696488	0.097859	0.612870	1221.361450
3528.697389	0.097852	0.612870	1309.525757
3528.698294	0.097870	0.612870	1398.098022
3528.699232	0.097921	0.612870	1489.947998
3528.700141	0.097896	0.612870	1578.935059
3528.701038	0.097822	0.612870	1666.681641
3528.701928	0.097863	0.612870	1753.779297
3528.702863	0.097892	0.612870	1845.308228
3528.703773	0.097775	0.612870	1934.283203
3529.690334	1.028910	0.636924	473.298553
3529.691252	0.608459	0.636924	1031.864380
3529.692141	0.101924	0.636924	1122.474609
3529.693115	0.097808	0.636924	1217.739258
3529.694022	0.097782	0.636924	1306.427490
3529.694914	0.097723	0.636924	1393.596802
3529.695863	0.097866	0.636924	1486.471802
3529.696766	0.097874	0.636924	1574.851562
3529.697664	0.097852	0.636924	1662.722290
3529.698554	0.097771	0.636924	1749.738525
3529.699487	0.097804	0.636924	1840.989624
3529.700390	0.097789	0.636924	1929.293335
3530.764750	1.012284	0.609982	447.429504
3530.765723	0.568195	0.609982	1000.282837
3530.766632	0.100638	0.609982	1091.763184
3530.767532	0.097742	0.609982	1179.730713
3530.768417	0.097789	0.609982	1266.274292
3530.769343	0.097782	0.609982	1356.820435
3530.770251	0.097753	0.609982	1445.579834
3530.771150	0.097727	0.609982	1533.436401
3530.772072	0.097756	0.609982	1623.567749
3530.772978	0.097877	0.609982	1712.244507
3530.773886	0.097767	0.609982	1801.017212
3530.774783	0.097767	0.609982	1888.714478
3531.761608	1.009017	0.637109	444.976654
3531.762571	0.564818	0.637109	988.896484
3531.763491	0.100745	0.637109	1081.581543
3531.764394	0.097738	0.637109	1169.838989
3531.765327	0.097855	0.637109	1261.137939
3531.766239	0.097797	0.637109	1350.328491
3531.767150	0.097745	0.637109	1439.374512
3531.768046	0.097760	0.637109	1526.967529
3531.768980	0.097859	0.637109	1618.367676
3531.769883	0.097778	0.637109	1706.661499
3531.770783	0.097775	0.637109	1794.658691
3531.771670	0.097844	0.637109	1881.446533
3532.836048	1.018077	0.604020	452.026367
3532.836986	0.599718	0.604020	1014.561890
3532.837884	0.101338	0.604020	1105.563354
3532.838822	0.097690	0.604020	1197.197021
3532.839728	0.097775	0.604020	1285.780884
3532.840634	0.097690	0.604020	1374.288452
3532.841522	0.097636	0.604020	1460.988770
3532.842462	0.097734	0.604020	1552.859131
3532.843367	0.097687	0.604020	1641.265625
3532.844255	0.097712	0.604020	1728.034180
3532.845181	0.097723	0.604020	1818.526001
3532.846097	0.097764	0.604020	1908.077515
3533.832969	1.073342	0.638950	538.817810
3533.833898	0.538110	0.638950	1038.722412
3533.834791	0.100518	0.638950	1128.484619
3533.835745	0.097760	0.638950	1221.747681
3533.836647	0.097734	0.638950	1309.904053
3533.837544	0.097771	0.638950	1397.604614
3533.838430	0.097738	0.638950	1484.200562
3533.839364	0.097764	0.638950	1575.511841
3533.840278	0.097701	0.638950	1664.810913
3533.841181	0.097698	0.638950	1753.031982
3533.842073	0.097694	0.638950	1840.175049
3533.843022	0.097797	0.638950	1932.984009
3534.907346	1.012529	0.608971	448.550446
3534.908280	0.627686	0.608971	1034.808716
3534.909218	0.100928	0.608971	1129.478882
3534.910118	0.097731	0.608971	1217.436523
3534.911018	0.097753	0.608971	1305.413940
3534.911940	0.097778	0.608971	1395.565552
3534.912850	0.097797	0.608971	1484.560547
3534.913755	0.097764	0.608971	1573.036621
3534.914642	0.097797	0.608971	1659.782227
3534.915591	0.097863	0.608971	1752.653809
3534.916502	0.097782	0.608971	1841.733154
3534.917397	0.097749	0.608971	1929.218506
3535.903952	1.003784	0.635481	437.649902
3535.904898	0.636211	0.635481	1039.505371
3535.905808	0.101342	0.635481	1131.726196
3535.906715	0.097727	0.635481	1220.364624
3535.907607	0.097833	0.635481	1307.631836
3535.908547	0.097844	0.635481	1399.605469
3535.909444	0.097811	0.635481	1487.342163
3535.910341	0.097833	0.635481	1575.098633
3535.911228	0.097808	0.635481	1661.854004
3535.912167	0.097844	0.635481	1753.729736
3535.913077	0.097753	0.635481	1842.684692
3535.913973	0.097764	0.635481	1930.281006
3536.978684	1.042379	0.609507	509.723389
3536.979624	0.537678	0.609507	1015.140930
3536.980524	0.100433	0.609507	1105.531006
3536.981412	0.097723	0.609507	1192.309326
3536.982354	0.097760	0.609507	1284.399292
3536.983260	0.097800	0.609507	1373.006348
3536.984150	0.097764	0.609507	1460.015991
3536.985086	0.097734	0.609507	1551.495361
3536.985988	0.097786	0.609507	1639.697998
3536.986890	0.097731	0.609507	1727.851074
3536.987786	0.097716	0.609507	1815.404663
3536.988735	0.097848	0.609507	1908.262329
3537.974983	1.007604	0.639820	441.330444
3537.975947	0.573336	0.639820	994.026550
3537.976872	0.100583	0.639820	1087.066284
3537.977770	0.097760	0.639820	1174.854736
3537.978715	0.097826	0.639820	1267.300293
3537.979617	0.097782	0.639820	1355.499634
3537.980514	0.097797	0.639820	1443.223267
3537.981401	0.097709	0.639820	1529.890869
3537.982342	0.097778	0.639820	1621.900269
3537.983244	0.097720	0.639820	1710.043457
3537.984158	0.097676	0.639820	1799.319092
3537.985047	0.097720	0.639820	1886.191895
3539.049440	1.023636	0.610236	467.801849
3539.050340	0.634116	0.610236	1038.506470
3539.051289	0.102305	0.610236	1135.593628
3539.052186	0.097705	0.610236	1223.235107
3539.053097	0.097679	0.610236	1312.221069
3539.054000	0.097793	0.610236	1400.528076
3539.054935	0.097756	0.610236	1491.930298
3539.055845	0.097786	0.610236	1580.915283
3539.056751	0.097705	0.610236	1669.436035
3539.057638	0.097694	0.610236	1756.090698
3539.058579	0.097789	0.610236	1848.110474
3539.059480	0.097804	0.610236	1936.231812
3540.046305	1.033839	0.641774	469.362946
3540.047206	0.628879	0.641774	1035.983276
3540.048144	0.101539	0.641774	1131.227173
3540.049056	0.097815	0.641774	1220.434448
3540.049959	0.097841	0.641774	1308.784546
3540.050845	0.097833	0.641774	1395.464844
3540.051783	0.097848	0.641774	1487.246216
3540.052692	0.097815	0.641774	1576.160034
3540.053585	0.097826	0.641774	1663.518555
3540.054515	0.097848	0.641774	1754.517090
3540.055415	0.097852	0.641774	1842.583496
3540.056326	0.097877	0.641774	1931.749634
3541.120209	1.013178	0.608335	452.890350
3541.121189	0.595682	0.608335	1036.659058
3541.122087	0.100583	0.608335	1126.983032
3541.122979	0.097654	0.608335	1214.090210
3541.123866	0.097694	0.608335	1300.744873
3541.124802	0.097764	0.608335	1392.251709
3541.125702	0.097767	0.608335	1480.242310
3541.126607	0.097679	0.608335	1568.642212
3541.127495	0.097753	0.608335	1655.446655
3541.128437	0.097811	0.608335	1747.584839
3541.129341	0.097720	0.608335	1835.923462
3541.130233	0.097782	0.608335	1923.145020
3542.117839	1.011471	0.642495	447.070190
3542.118799	0.583030	0.642495	1006.778748
3542.119726	0.100448	0.642495	1099.894043
3542.120644	0.097841	0.642495	1189.711670
3542.121531	0.097782	0.642495	1276.444336
3542.122480	0.097808	0.642495	1369.263794
3542.123381	0.097870	0.642495	1457.444580
3542.124269	0.097760	0.642495	1544.255493
3542.125209	0.097896	0.642495	1636.277222
3542.126116	0.097778	0.642495	1724.962158
3542.127020	0.097786	0.642495	1813.360352
3542.127915	0.097786	0.642495	1900.878540
3543.191044	1.045448	0.609015	521.678589
3543.191966	0.539663	0.609015	1019.247986
3543.192867	0.100408	0.609015	1109.715332
3543.193758	0.097709	0.609015	1196.773804
3543.194699	0.097848	0.609015	1288.848633
3543.195618	0.097764	0.609015	1378.693481
3543.196514	0.097771	0.609015	1466.296265
3543.197423	0.097723	0.609015	1555.126831
3543.198345	0.097778	0.609015	1645.278442
3543.199253	0.097683	0.609015	1733.974731
3543.200147	0.097756	0.609015	1821.368896
3543.201089	0.097793	0.609015	1913.489868
3544.188893	1.022937	0.643329	463.390442
3544.189795	0.636731	0.643329	1037.721802
3544.190728	0.102448	0.643329	1133.305298
3544.191642	0.097771	0.643329	1222.667969
3544.192539	0.097767	0.643329	1310.365234
3544.193429	0.097676	0.643329	1397.296631
3544.194374	0.097786	0.643329	1489.704102
3544.195277	0.097738	0.643329	1577.961548
3544.196176	0.097705	0.643329	1665.798462
3544.197066	0.097716	0.643329	1752.765747
3544.198003	0.097720	0.643329	1844.329102
3544.198911	0.097745	0.643329	1933.081909
3545.262544	1.005436	0.610957	443.397156
3545.263446	0.653914	0.610957	1033.227173
3545.264409	0.101107	0.610957	1130.593384
3545.265317	0.097698	0.610957	1219.302979
3545.266221	0.097742	0.610957	1307.661499
3545.267106	0.097782	0.610957	1394.198486
3545.268062	0.097866	0.610957	1487.758545
3545.268967	0.097716	0.610957	1576.191528
3545.269854	0.097793	0.610957	1662.933838
3545.270786	0.097830	0.610957	1754.110962
3545.271693	0.097775	0.610957	1842.792603
3545.272596	0.097782	0.610957	1931.089722
3546.260433	1.020992	0.644195	451.278625
3546.261416	0.542585	0.644195	984.640137
3546.262330	0.100433	0.644195	1076.436279
3546.263225	0.097709	0.644195	1163.885620
3546.264173	0.097837	0.644195	1256.635010
3546.265065	0.097782	0.644195	1343.856567
3546.265962	0.097771	0.644195	1431.557129
3546.266854	0.097764	0.644195	1518.762329
3546.267802	0.097906	0.644195	1611.577637
3546.268716	0.097778	0.644195	1700.947021
3546.269615	0.097789	0.644195	1788.859619
3546.270543	0.097771	0.644195	1879.591064
3547.333091	1.037450	0.607609	479.301880
3547.333992	0.620720	0.607609	1038.570801
3547.334947	0.101466	0.607609	1135.470947
3547.335863	0.097650	0.607609	1224.918457
3547.336784	0.097749	0.607609	1314.945312
3547.337668	0.097690	0.607609	1401.303711
3547.338605	0.097676	0.607609	1492.825928
3547.339512	0.097742	0.607609	1581.477661
3547.340398	0.097694	0.607609	1668.034668
3547.341327	0.097789	0.607609	1758.880981
3547.342240	0.097657	0.607609	1848.042236
3547.343142	0.097734	0.607609	1936.198608
3548.331740	1.029760	0.638958	462.362030
3548.332647	0.629033	0.638958	1032.895142
3548.333545	0.102389	0.638958	1124.840332
3548.334495	0.097863	0.638958	1217.809814
3548.335405	0.097760	0.638958	1306.771484
3548.336310	0.097749	0.638958	1395.234375
3548.337196	0.097822	0.638958	1481.904907
3548.338138	0.097833	0.638958	1574.063843
3548.339048	0.097760	0.638958	1663.025391
3548.339962	0.097756	0.638958	1752.374756
3548.340849	0.097782	0.638958	1839.107422
3548.341801	0.097767	0.638958	1932.181885
3549.404130	1.033931	0.608895	468.370575
3549.405060	0.601937	0.608895	1028.172241
3549.405959	0.101448	0.608895	1119.373779
3549.406881	0.097753	0.608895	1209.501709
3549.407797	0.097789	0.608895	1299.076660
3549.408706	0.097764	0.608895	1387.943848
3549.409599	0.097786	0.608895	1475.266479
3549.410539	0.097848	0.608895	1567.243530
3549.411437	0.097778	0.608895	1655.048462
3549.412341	0.097767	0.608895	1743.430176
3549.413233	0.097756	0.608895	1830.628784
3549.414181	0.097819	0.608895	1923.360840
3550.403027	1.018034	0.640154	458.115082
3550.404015	0.529083	0.640154	980.849365
3550.404933	0.100140	0.640154	1072.778198
3550.405828	0.097811	0.640154	1160.319336
3550.406752	0.097954	0.640154	1250.828979
3550.407669	0.097950	0.640154	1340.649536
3550.408578	0.097793	0.640154	1429.543335
3550.409476	0.097778	0.640154	1517.348267
3550.410401	0.097969	0.640154	1607.969360
3550.411306	0.097903	0.640154	1696.571411
3550.412212	0.097841	0.640154	1785.214966
3550.413099	0.097720	0.640154	1871.892334
3551.474902	1.014375	0.612141	455.454407
3551.475804	0.645798	0.612141	1037.964478
3551.476744	0.102715	0.612141	1134.516479
3551.477641	0.097734	0.612141	1222.184204
3551.478553	0.097775	0.612141	1311.354736
3551.479448	0.097808	0.612141	1398.892578
3551.480332	0.097866	0.612141	1485.406250
3551.481296	0.097808	0.612141	1579.692749
3551.482205	0.097789	0.612141	1668.583252
3551.483129	0.097852	0.612141	1758.998047
3551.484018	0.097848	0.612141	1845.984863
3551.484977	0.097760	0.612141	1939.736694
3552.474323	1.016898	0.642185	452.519684
3552.475230	0.644641	0.642185	1037.209106
3552.476120	0.102601	0.642185	1128.524292
3552.477088	0.097771	0.642185	1223.166626
3552.477982	0.097866	0.642185	1310.659058
3552.478881	0.097701	0.642185	1398.492676
3552.479766	0.097782	0.642185	1485.029785
3552.480710	0.097877	0.642185	1577.425903
3552.481608	0.097738	0.642185	1665.194702
3552.482506	0.097742	0.642185	1752.966797
3552.483436	0.097841	0.642185	1843.958496
3552.484346	0.097793	0.642185	1932.950073
3553.545927	1.004216	0.610707	438.842529
3553.546847	0.643557	0.610707	1030.915039
3553.547797	0.100778	0.610707	1126.653809
3553.548707	0.097694	0.610707	1215.555420
3553.549597	0.097789	0.610707	1302.587891
3553.550536	0.097881	0.610707	1394.498047
3553.551445	0.097734	0.610707	1483.338623
3553.552334	0.097800	0.610707	1570.283081
3553.553259	0.097859	0.610707	1660.802490
3553.554167	0.097870	0.610707	1749.668335
3553.555075	0.097745	0.610707	1838.421143
3553.555970	0.097712	0.610707	1925.873779
3554.545365	1.017133	0.646430	451.606842
3554.546271	0.644015	0.646430	1035.084351
3554.547185	0.102803	0.646430	1129.046021
3554.548127	0.097690	0.646430	1221.070435
3554.549027	0.097815	0.646430	1309.103882
3554.549915	0.097753	0.646430	1395.908325
3554.550863	0.097808	0.646430	1488.629883
3554.551767	0.097760	0.646430	1577.004883
3554.552686	0.097749	0.646430	1666.836182
3554.553574	0.097753	0.646430	1753.640625
3554.554517	0.097771	0.646430	1845.838623
3554.555426	0.097742	0.646430	1934.685791
3555.616729	1.019872	0.609861	456.902588
3555.617658	0.608203	0.609861	1021.923279
3555.618559	0.101631	0.609861	1113.492676
3555.619455	0.097756	0.609861	1201.082397
3555.620408	0.097877	0.609861	1294.359375
3555.621325	0.097767	0.609861	1384.011963
3555.622216	0.097767	0.609861	1471.122681
3555.623155	0.097841	0.609861	1562.994995
3555.624060	0.097760	0.609861	1651.467773
3555.624959	0.097723	0.609861	1739.321045
3555.625852	0.097844	0.609861	1826.695923
3555.626813	0.097881	0.609861	1920.759399
3556.617179	1.028899	0.638873	464.033417
3556.618086	0.637584	0.638873	1042.322266
3556.618976	0.102484	0.638873	1133.533203
3556.619937	0.097808	0.638873	1227.526367
3556.620830	0.097811	0.638873	1314.871826
3556.621738	0.097815	0.638873	1403.687744
3556.622625	0.097837	0.638873	1490.469116
3556.623567	0.097852	0.638873	1582.645264
3556.624466	0.097767	0.638873	1670.538086
3556.625362	0.097771	0.638873	1758.140869
3556.626289	0.097870	0.638873	1848.866211
3556.627195	0.097874	0.638873	1937.539673
3557.687762	1.013287	0.614196	451.926147
3557.688662	0.650768	0.614196	1037.617187
3557.689600	0.102488	0.614196	1133.750732
3557.690499	0.097797	0.614196	1221.669922
3557.691402	0.097771	0.614196	1309.957153
3557.692288	0.097855	0.614196	1396.656860
3557.693229	0.097855	0.614196	1488.738647
3557.694127	0.097786	0.614196	1576.550171
3557.695033	0.097738	0.614196	1665.100830
3557.695924	0.097778	0.614196	1752.221313
3557.696877	0.097797	0.614196	1845.421509
3557.697786	0.097749	0.614196	1934.275391
3558.687946	1.003616	0.638688	440.587311
3558.688842	0.662732	0.638688	1034.395020
3558.689815	0.100825	0.638688	1132.497925
3558.690713	0.097705	0.638688	1220.237061
3558.691610	0.097720	0.638688	1307.891602
3558.692516	0.097720	0.638688	1396.425659
3558.693440	0.097775	0.638688	1486.769409
3558.694338	0.097676	0.638688	1574.482300
3558.695231	0.097734	0.638688	1661.759033
3558.696159	0.097778	0.638688	1752.497314
3558.697060	0.097738	0.638688	1840.559326
3558.697963	0.097760	0.638688	1928.836670
3559.759055	1.012119	0.613813	444.320312
3559.760011	0.578925	0.613813	997.772217
3559.760935	0.100697	0.613813	1090.816284
3559.761833	0.097753	0.613813	1178.598145
3559.762768	0.097738	0.613813	1269.983154
3559.763674	0.097793	0.613813	1358.583618
3559.764584	0.097811	0.613813	1447.591919
3559.765472	0.097778	0.613813	1534.419067
3559.766425	0.097903	0.613813	1627.720459
3559.767335	0.097731	0.613813	1716.655396
3559.768230	0.097789	0.613813	1804.176758
3559.769151	0.097815	0.613813	1894.264282
3560.759238	1.006633	0.643989	439.898743
3560.760203	0.584117	0.643989	1003.572083
3560.761108	0.100649	0.643989	1094.659790
3560.762002	0.097727	0.643989	1182.027832
3560.762943	0.097782	0.643989	1274.040649
3560.763852	0.097701	0.643989	1362.851196
3560.764763	0.097775	0.643989	1451.923950
3560.765652	0.097786	0.643989	1538.855347
3560.766604	0.097874	0.643989	1632.031006
3560.767511	0.097687	0.643989	1720.632935
3560.768410	0.097826	0.643989	1808.578491
3560.769296	0.097734	0.643989	1895.171143
3561.830128	1.046115	0.608306	498.996643
3561.831042	0.593313	0.608306	1041.284668
3561.831933	0.101528	0.608306	1131.746338
3561.832874	0.097815	0.608306	1223.790161
3561.833785	0.097837	0.608306	1312.919556
3561.834689	0.097822	0.608306	1401.350830
3561.835610	0.097870	0.608306	1491.489014
3561.836536	0.097921	0.608306	1582.163940
3561.837445	0.097786	0.608306	1671.051147
3561.838338	0.097753	0.608306	1758.344238
3561.839281	0.097888	0.608306	1850.652832
3561.840182	0.097863	0.608306	1938.827026
3562.830560	1.029144	0.642684	468.260651
3562.831463	0.635391	0.642684	1042.018311
3562.832414	0.102125	0.642684	1139.139404
3562.833316	0.097760	0.642684	1227.318970
3562.834211	0.097749	0.642684	1314.804321
3562.835100	0.097841	0.642684	1401.784546
3562.836047	0.097756	0.642684	1494.359863
3562.836955	0.097793	0.642684	1583.155884
3562.837863	0.097811	0.642684	1671.968506
3562.838769	0.097764	0.642684	1760.542358
3562.839704	0.097822	0.642684	1852.006226
3562.840612	0.097742	0.642684	1940.755737
3563.901147	1.008746	0.610067	452.927063
3563.902046	0.650273	0.610067	1037.522949
3563.902991	0.102949	0.610067	1134.809937
3563.903896	0.097734	0.610067	1223.259521
3563.904804	0.097826	0.610067	1312.085449
3563.905695	0.097881	0.610067	1399.297241
3563.906643	0.097848	0.610067	1492.057007
3563.907547	0.097815	0.610067	1580.481689
3563.908437	0.097841	0.610067	1667.559814
3563.909367	0.097767	0.610067	1758.483398
3563.910274	0.097800	0.610067	1847.188232
3563.911167	0.097808	0.610067	1934.530396
3564.901324	1.006725	0.642289	440.945465
3564.902300	0.581730	0.642289	1008.713623
3564.903199	0.100686	0.642289	1099.230347
3564.904100	0.097771	0.642289	1187.322021
3564.905015	0.097727	0.642289	1276.742310
3564.905911	0.097764	0.642289	1364.338623
3564.906866	0.097786	0.642289	1457.723877
3564.907769	0.097771	0.642289	1546.011108
3564.908657	0.097837	0.642289	1632.890259
3564.909589	0.097808	0.642289	1724.046997
3564.910500	0.097819	0.642289	1813.159790
3564.911398	0.097789	0.642289	1900.974609
3565.972223	1.061279	0.613890	518.965576
3565.973149	0.555729	0.613890	1033.570435
3565.974043	0.100752	0.613890	1123.642700
3565.974928	0.097701	0.613890	1210.108398
3565.975864	0.097800	0.613890	1301.649414
3565.976779	0.097767	0.613890	1391.106567
3565.977676	0.097837	0.613890	1478.866333
3565.978611	0.097881	0.613890	1570.384888
3565.979513	0.097767	0.613890	1658.571045
3565.980407	0.097764	0.613890	1745.971802
3565.981297	0.097712	0.613890	1832.935791
3565.982247	0.097830	0.613890	1925.873901
3566.972432	1.057387	0.642769	538.209717
3566.973358	0.527640	0.642769	1026.804687
3566.974254	0.100225	0.642769	1116.605957
3566.975193	0.097771	0.642769	1208.412964
3566.976095	0.097811	0.642769	1296.638672
3566.976993	0.097665	0.642769	1384.341675
3566.977885	0.097672	0.642769	1471.465210
3566.978811	0.097811	0.642769	1562.038452
3566.979715	0.097723	0.642769	1650.380371
3566.980622	0.097701	0.642769	1738.995605
3566.981511	0.097654	0.642769	1825.809814
3566.982464	0.097767	0.642769	1918.982056
3568.043728	1.010204	0.609736	443.479523
3568.044626	0.652108	0.609736	1029.072632
3568.045565	0.101437	0.609736	1124.321777
3568.046478	0.097731	0.609736	1213.549927
3568.047379	0.097778	0.609736	1301.648193
3568.048277	0.097793	0.609736	1389.466309
3568.049207	0.097789	0.609736	1480.410400
3568.050114	0.097745	0.609736	1569.065430
3568.051010	0.097786	0.609736	1656.681396
3568.051948	0.097822	0.609736	1748.438721
3568.052841	0.097767	0.609736	1835.744995
3568.053748	0.097808	0.609736	1924.456543
3569.043427	1.036066	0.640750	475.554169
3569.044329	0.625327	0.640750	1039.599243
3569.045287	0.100939	0.640750	1136.298584
3569.046191	0.097720	0.640750	1224.637207
3569.047090	0.097727	0.640750	1312.493774
3569.047977	0.097709	0.640750	1399.161377
3569.048924	0.097899	0.640750	1491.871826
3569.049838	0.097698	0.640750	1581.167603
3569.050737	0.097789	0.640750	1669.080200
3569.051676	0.097756	0.640750	1760.873413
3569.052581	0.097837	0.640750	1849.415771
3569.053488	0.097749	0.640750	1938.074097
3570.114764	1.002565	0.608713	439.123322
3570.115732	0.623419	0.608713	1042.593018
3570.116647	0.100415	0.608713	1134.472778
3570.117549	0.097679	0.608713	1222.579590
3570.118439	0.097782	0.608713	1309.605591
3570.119389	0.097778	0.608713	1402.494995
3570.120297	0.097793	0.608713	1491.291016
3570.121185	0.097727	0.608713	1578.072632
3570.122116	0.097745	0.608713	1669.073608
3570.123020	0.097830	0.608713	1757.511597
3570.123918	0.097731	0.608713	1845.273804
3570.124807	0.097731	0.608713	1932.156372
3571.114195	1.010607	0.648412	448.709412
3571.115162	0.565104	0.648412	995.164734
3571.116062	0.100935	0.648412	1086.006348
3571.116960	0.097683	0.648412	1173.725830
3571.117845	0.097767	0.648412	1260.249878
3571.118782	0.097804	0.648412	1351.892212
3571.119694	0.097694	0.648412	1440.989258
3571.120589	0.097756	0.648412	1528.481201
3571.121519	0.097756	0.648412	1619.394653
3571.122426	0.097764	0.648412	1708.066284
3571.123333	0.097657	0.648412	1796.641602
3571.124252	0.097749	0.648412	1886.472900
3572.185820	1.023688	0.610143	456.564728
3572.186724	0.642737	0.610143	1037.598877
3572.187609	0.102740	0.610143	1128.524170
3572.188551	0.097610	0.610143	1220.472656
3572.189458	0.097727	0.610143	1309.111084
3572.190357	0.097712	0.610143	1396.954590
3572.191282	0.097720	0.610143	1487.345337
3572.192201	0.097760	0.610143	1577.186768
3572.193114	0.097727	0.610143	1666.411621
3572.194008	0.097654	0.610143	1753.714111
3572.194946	0.097709	0.610143	1845.364868
3572.195850	0.097701	0.610143	1933.687012
3573.185500	1.024288	0.644557	453.759766
3573.186410	0.636357	0.644557	1032.844971
3573.187300	0.102535	0.644557	1124.101440
3573.188266	0.097679	0.644557	1218.459839
3573.189161	0.097793	0.644557	1305.984497
3573.190065	0.097778	0.644557	1394.376099
3573.190951	0.097767	0.644557	1480.997925
3573.191886	0.097866	0.644557	1572.502808
3573.192785	0.097709	0.644557	1660.343018
3573.193682	0.097742	0.644557	1748.017334
3573.194614	0.097753	0.644557	1839.122803
3573.195519	0.097786	0.644557	1927.618774
3574.257101	1.006798	0.614450	439.970795
3574.258062	0.588611	0.614450	1005.625854
3574.258975	0.100796	0.614450	1097.652466
3574.259880	0.097625	0.614450	1186.002686
3574.260770	0.097760	0.614450	1273.009033
3574.261724	0.097760	0.614450	1366.272095
3574.262635	0.097687	0.614450	1455.264771
3574.263524	0.097749	0.614450	1542.163696
3574.264448	0.097800	0.614450	1632.531128
3574.265361	0.097712	0.614450	1721.742554
3574.266263	0.097665	0.614450	1809.836182
3574.267149	0.097716	0.614450	1896.412598
3575.256269	1.003619	0.646910	440.588928
3575.257166	0.660853	0.646910	1033.374268
3575.258126	0.101074	0.646910	1130.405518
3575.259028	0.097720	0.646910	1218.548706
3575.259931	0.097782	0.646910	1306.845825
3575.260819	0.097764	0.646910	1393.659912
3575.261749	0.097789	0.646910	1484.604004
3575.262660	0.097771	0.646910	1573.673340
3575.263551	0.097738	0.646910	1660.757935
3575.264480	0.097778	0.646910	1751.593994
3575.265390	0.097771	0.646910	1840.565552
3575.266292	0.097749	0.646910	1928.735107
3576.328714	1.073730	0.613523	539.012695
3576.329631	0.552986	0.613523	1046.100708
3576.330517	0.100833	0.613523	1135.438354
3576.331455	0.097786	0.613523	1227.161255
3576.332368	0.097786	0.613523	1316.439575
3576.333271	0.097811	0.613523	1404.763184
3576.334159	0.097657	0.613523	1491.483032
3576.335104	0.097815	0.613523	1583.918213
3576.336018	0.097738	0.613523	1673.250732
3576.336918	0.097654	0.613523	1761.139160
3576.337814	0.097701	0.613523	1848.679687
3576.338744	0.097789	0.613523	1939.623779
3577.327311	1.027529	0.643735	459.305573
3577.328299	0.521906	0.643735	974.948242
3577.329205	0.100074	0.643735	1065.615723
3577.330105	0.097701	0.643735	1153.546997
3577.330994	0.097694	0.643735	1240.397095
3577.331938	0.097808	0.643735	1332.727539
3577.332841	0.097712	0.643735	1420.961792
3577.333770	0.097793	0.643735	1511.811523
3577.334658	0.097745	0.643735	1598.609375
3577.335592	0.097716	0.643735	1689.876221
3577.336500	0.097789	0.643735	1778.668945
3577.337392	0.097760	0.643735	1865.870850
3578.399695	1.009786	0.612081	448.345154
3578.400639	0.628008	0.612081	1041.184570
3578.401562	0.100876	0.612081	1134.293579
3578.402482	0.097636	0.612081	1224.118286
3578.403371	0.097742	0.612081	1311.010620
3578.404294	0.097679	0.612081	1401.168701
3578.405204	0.097742	0.612081	1490.113647
3578.406107	0.097734	0.612081	1578.367798
3578.406995	0.097808	0.612081	1665.220947
3578.407948	0.097764	0.612081	1758.389771
3578.408848	0.097723	0.612081	1846.340820
3578.409744	0.097734	0.612081	1933.910767
3579.398100	1.023223	0.644251	458.403748
3579.399034	0.599872	0.644251	1018.684021
3579.399930	0.101583	0.644251	1109.702637
3579.400875	0.097833	0.644251	1202.155029
3579.401777	0.097775	0.644251	1290.347778
3579.402679	0.097760	0.644251	1378.527344
3579.403564	0.097764	0.644251	1465.048218
3579.404509	0.097800	0.644251	1557.469482
3579.405418	0.097811	0.644251	1646.379883
3579.406320	0.097760	0.644251	1734.559448
3579.407253	0.097804	0.644251	1825.810547
3579.408162	0.097786	0.644251	1914.697754
3580.471262	1.025508	0.612440	460.453003
3580.472195	0.598026	0.612440	1018.411377
3580.473097	0.101342	0.612440	1109.821411
3580.474028	0.097720	0.612440	1200.798462
3580.474932	0.097815	0.612440	1289.223145
3580.475831	0.097734	0.612440	1377.086304
3580.476720	0.097811	0.612440	1464.040527
3580.477673	0.097837	0.612440	1557.279053
3580.478580	0.097797	0.612440	1645.980591
3580.479470	0.097789	0.612440	1733.013062
3580.480377	0.097771	0.612440	1821.691406
3580.481297	0.097848	0.612440	1911.711426
3581.468897	1.035593	0.649617	479.479614
3581.469790	0.630630	0.649617	1042.632080
3581.470744	0.101125	0.649617	1139.105835
3581.471651	0.097756	0.649617	1227.770874
3581.472544	0.097712	0.649617	1315.028076
3581.473433	0.097731	0.649617	1401.910645
3581.474378	0.097727	0.649617	1494.262695
3581.475291	0.097698	0.649617	1583.460693
3581.476187	0.097742	0.649617	1671.037231
3581.477115	0.097822	0.649617	1761.816284
3581.478011	0.097833	0.649617	1849.474854
3581.478913	0.097683	0.649617	1937.584961
3582.542549	1.013628	0.614047	451.064423
3582.543450	0.640217	0.614047	1027.900269
3582.544400	0.101371	0.614047	1124.202637
3582.545312	0.097694	0.614047	1213.299683
3582.546201	0.097694	0.614047	1300.149780
3582.547128	0.097767	0.614047	1390.780151
3582.548029	0.097782	0.614047	1478.881714
3582.548930	0.097771	0.614047	1566.973389
3582.549821	0.097756	0.614047	1654.074341
3582.550768	0.097811	0.614047	1746.701660
3582.551660	0.097760	0.614047	1833.903564
3582.552554	0.097771	0.614047	1921.310791
3583.539914	1.005890	0.645931	439.573883
3583.540906	0.564998	0.645931	1000.051514
3583.541820	0.100360	0.645931	1091.780640
3583.542722	0.097617	0.645931	1179.831299
3583.543612	0.097833	0.645931	1266.902832
3583.544552	0.097767	0.645931	1358.804077
3583.545448	0.097683	0.645931	1446.328125
3583.546338	0.097701	0.645931	1533.282349
3583.547268	0.097723	0.645931	1624.165039
3583.548183	0.097815	0.645931	1713.665771
3583.549085	0.097639	0.645931	1801.736328
3583.549971	0.097841	0.645931	1888.423096
3584.613374	1.029225	0.612379	504.320190
3584.614301	0.561229	0.612379	1024.579712
3584.615222	0.100466	0.612379	1117.109131
3584.616113	0.097716	0.612379	1204.174194
3584.617046	0.097870	0.612379	1295.486816
3584.617952	0.097830	0.612379	1384.120361
3584.618858	0.097786	0.612379	1472.714111
3584.619748	0.097841	0.612379	1559.792236
3584.620692	0.097844	0.612379	1652.157227
3584.621597	0.097716	0.612379	1740.590210
3584.622489	0.097797	0.612379	1827.824829
3584.623435	0.097826	0.612379	1920.368164
3585.610964	1.018444	0.649605	455.244324
3585.611875	0.639382	0.649605	1037.721680
3585.612767	0.102550	0.649605	1129.196289
3585.613725	0.097742	0.649605	1222.832886
3585.614635	0.097738	0.649605	1311.774536
3585.615539	0.097690	0.649605	1400.086670
3585.616422	0.097676	0.649605	1486.334351
3585.617372	0.097841	0.649605	1579.282959
3585.618283	0.097753	0.649605	1668.335693
3585.619173	0.097731	0.649605	1755.316040
3585.620107	0.097738	0.649605	1846.603394
3585.621008	0.097800	0.649605	1934.721436
3586.685157	1.022175	0.611473	473.267181
3586.686056	0.620940	0.611473	1031.492187
3586.686993	0.102041	0.611473	1127.104614
3586.687907	0.097694	0.611473	1216.396973
3586.688817	0.097797	0.611473	1305.391846
3586.689706	0.097760	0.611473	1392.300537
3586.690671	0.097859	0.611473	1486.734375
3586.691577	0.097672	0.611473	1575.225342
3586.692480	0.097749	0.611473	1663.492676
3586.693371	0.097753	0.611473	1750.590332
3586.694314	0.097753	0.611473	1842.771118
3586.695217	0.097782	0.611473	1931.068237
3587.681747	1.011083	0.649174	449.931824
3587.682648	0.649717	0.649174	1035.326660
3587.683606	0.101188	0.649174	1132.264526
3587.684513	0.097804	0.649174	1220.972656
3587.685403	0.097808	0.649174	1308.021484
3587.686313	0.097811	0.649174	1397.029785
3587.687214	0.097819	0.649174	1485.164307
3587.688155	0.097800	0.649174	1577.194336
3587.689071	0.097778	0.649174	1666.759277
3587.689964	0.097822	0.649174	1754.114502
3587.690898	0.097830	0.649174	1845.487305
3587.691811	0.097804	0.649174	1934.782349
3588.756171	1.017938	0.612411	446.874908
3588.757160	0.552990	0.612411	993.781616
3588.758062	0.100503	0.612411	1084.435303
3588.758963	0.097749	0.612411	1172.507202
3588.759898	0.097837	0.612411	1263.984741
3588.760810	0.097797	0.612411	1353.175293
3588.761710	0.097793	0.612411	1441.188965
3588.762600	0.097804	0.612411	1528.234497
3588.763550	0.097906	0.612411	1621.245605
3588.764458	0.097815	0.612411	1710.061523
3588.765350	0.097738	0.612411	1797.243896
3588.766277	0.097811	0.612411	1887.914917
3589.753369	1.043064	0.648175	538.221008
3589.754300	0.509147	0.648175	1012.236633
3589.755205	0.099921	0.648175	1102.664795
3589.756098	0.097771	0.648175	1189.974243
3589.757040	0.097855	0.648175	1282.153809
3589.757955	0.097657	0.648175	1371.510376
3589.758856	0.097804	0.648175	1459.631714
3589.759795	0.097833	0.648175	1551.497070
3589.760692	0.097800	0.648175	1639.223877
3589.761595	0.097731	0.648175	1727.474731
3589.762483	0.097771	0.648175	1814.295410
3589.763427	0.097877	0.648175	1906.691528
3590.827239	1.036860	0.609672	476.955750
3590.828148	0.618629	0.609672	1039.289673
3590.829034	0.102169	0.609672	1129.811523
3590.829980	0.097793	0.609672	1222.323730
3590.830890	0.097760	0.609672	1311.285400
3590.831791	0.097742	0.609672	1399.350708
3590.832714	0.097749	0.609672	1489.572998
3590.833632	0.097866	0.609672	1579.414185
3590.834542	0.097786	0.609672	1668.399170
3590.835439	0.097888	0.609672	1756.204834
3590.836385	0.097822	0.609672	1848.744751
3590.837289	0.097855	0.609672	1937.205811
3591.823593	1.031162	0.647997	472.272247
3591.824529	0.587351	0.647997	1022.032837
3591.825418	0.101364	0.647997	1112.145020
3591.826370	0.097709	0.647997	1205.163696
3591.827264	0.097800	0.647997	1292.597168
3591.828163	0.097701	0.647997	1380.430786
3591.829056	0.097800	0.647997	1467.766479
3591.830005	0.097822	0.647997	1560.599854
3591.830913	0.097749	0.647997	1649.355957
3591.831810	0.097668	0.647997	1736.964600
3591.832732	0.097800	0.647997	1827.136475
3591.833635	0.097760	0.647997	1915.413818
3592.898517	1.017360	0.612105	455.777100
3592.899418	0.640862	0.612105	1033.193604
3592.900372	0.101653	0.612105	1130.170410
3592.901285	0.097639	0.612105	1219.314941
3592.902177	0.097738	0.612105	1306.497314
3592.903132	0.097745	0.612105	1399.844116
3592.904027	0.097716	0.612105	1487.300049
3592.904930	0.097650	0.612105	1575.478149
3592.905817	0.097712	0.612105	1662.149048
3592.906753	0.097764	0.612105	1753.655884
3592.907668	0.097694	0.612105	1843.046021
3592.908568	0.097698	0.612105	1930.973999
3593.894859	1.001726	0.645645	436.752563
3593.895792	0.648256	0.645645	1041.575073
3593.896704	0.101569	0.645645	1134.205688
3593.897609	0.097690	0.645645	1222.615479
3593.898502	0.097705	0.645645	1309.866089
3593.899387	0.097646	0.645645	1396.283203
3593.900341	0.097668	0.645645	1489.458862
3593.901240	0.097617	0.645645	1577.216675
3593.902151	0.097698	0.645645	1666.219360
3593.903047	0.097764	0.645645	1753.815674
3593.903998	0.097709	0.645645	1846.736694
3593.904902	0.097668	0.645645	1935.028931
3594.969351	1.075741	0.612516	537.870483
3594.970276	0.542831	0.612516	1039.989014
3594.971181	0.100459	0.612516	1130.904419
3594.972066	0.097690	0.612516	1217.360474
3594.973000	0.097877	0.612516	1308.777832
3594.973909	0.097811	0.612516	1397.688232
3594.974808	0.097826	0.612516	1485.633789
3594.975738	0.097749	0.612516	1576.540405
3594.976642	0.097778	0.612516	1664.932007
3594.977544	0.097716	0.612516	1753.071899
3594.978433	0.097734	0.612516	1839.957764
3594.979382	0.097782	0.612516	1932.752808
3595.966433	1.022736	0.648674	458.185547
3595.967367	0.609023	0.648674	1027.013428
3595.968255	0.101858	0.648674	1117.463257
3595.969189	0.097738	0.648674	1208.750610
3595.970089	0.097797	0.648674	1296.767578
3595.970995	0.097712	0.648674	1385.295044
3595.971885	0.097698	0.648674	1472.246094
3595.972836	0.097760	0.648674	1565.215820
3595.973743	0.097687	0.648674	1653.817749
3595.974644	0.097734	0.648674	1741.876465
3595.975563	0.097800	0.648674	1831.754883
3595.976464	0.097731	0.648674	1919.810303
3597.040355	1.033337	0.615179	474.301910
3597.041256	0.623584	0.615179	1036.151123
3597.042204	0.102056	0.615179	1132.899902
3597.043104	0.097771	0.615179	1220.893799
3597.043991	0.097672	0.615179	1307.528931
3597.044881	0.097756	0.615179	1394.532104
3597.045809	0.097859	0.615179	1485.345093
3597.046722	0.097822	0.615179	1574.656860
3597.047627	0.097749	0.615179	1663.119751
3597.048515	0.097797	0.615179	1749.963135
3597.049473	0.097793	0.615179	1843.648804
3597.050384	0.097819	0.615179	1932.761597
3598.037454	1.008116	0.646028	447.603729
3598.038347	0.656444	0.646028	1033.808350
3598.039324	0.100865	0.646028	1132.353882
3598.040225	0.097654	0.646028	1220.339966
3598.041119	0.097734	0.646028	1307.714478
3598.042055	0.097738	0.646028	1399.197266
3598.042961	0.097943	0.646028	1487.933716
3598.043872	0.097712	0.646028	1576.949707
3598.044770	0.097837	0.646028	1664.807251
3598.045705	0.097767	0.646028	1756.219727
3598.046602	0.097745	0.646028	1843.897339
3598.047504	0.097760	0.646028	1932.076904
3599.111373	1.001521	0.617950	439.667725
3599.112340	0.563423	0.617950	984.497620
3599.113246	0.100741	0.617950	1075.768921
3599.114145	0.097599	0.617950	1163.510254
3599.115070	0.097639	0.617950	1253.826416
3599.115957	0.097679	0.617950	1340.468140
3599.116914	0.097731	0.617950	1433.996460
3599.117809	0.097701	0.617950	1521.439209
3599.118699	0.097657	0.617950	1608.354370
3599.119630	0.097698	0.617950	1699.311035
3599.120529	0.097625	0.617950	1787.075439
3599.121446	0.097657	0.617950	1876.627319
3600.108808	1.073979	0.646849	536.989746
3600.109742	0.522103	0.646849	1024.634155
3600.110656	0.100001	0.646849	1116.035278
3600.111543	0.097687	0.646849	1202.683472
3600.112490	0.097797	0.646849	1295.296875
3600.113394	0.097716	0.646849	1383.632202
3600.114285	0.097786	0.646849	1470.759155
3600.115220	0.097764	0.646849	1562.168213
3600.116107	0.097877	0.646849	1648.985229
3600.117012	0.097720	0.646849	1737.421631
3600.117908	0.097786	0.646849	1825.037598
3600.118844	0.097925	0.646849	1916.695190
3601.182459	1.067011	0.618426	522.835144
3601.183398	0.532408	0.618426	1022.766724
3601.184303	0.100247	0.618426	1113.489868
3601.185193	0.097709	0.618426	1200.450684
3601.186142	0.097742	0.618426	1293.207520
3601.187042	0.097738	0.618426	1381.171753
3601.187933	0.097734	0.618426	1468.253052
3601.188883	0.097808	0.618426	1561.170288
3601.189778	0.097844	0.618426	1648.740845
3601.190684	0.097767	0.618426	1737.317993
3601.191577	0.097701	0.618426	1824.565308
3601.192520	0.097837	0.618426	1916.825562
3602.179808	1.023801	0.649645	460.710541
3602.180721	0.627045	0.649645	1033.202393
3602.181610	0.102180	0.649645	1124.040527
3602.182545	0.097720	0.649645	1215.408447
3602.183464	0.097636	0.649645	1305.135498
3602.184364	0.097581	0.649645	1392.958008
3602.185250	0.097672	0.649645	1479.495483
3602.186189	0.097668	0.649645	1571.206177
3602.187088	0.097646	0.649645	1658.990356
3602.187975	0.097639	0.649645	1745.596313
3602.188911	0.097727	0.649645	1837.068848
3602.189819	0.097709	0.649645	1925.788330
3603.253713	1.005820	0.618421	444.572601
3603.254609	0.651127	0.618421	1027.982178
3603.255552	0.101459	0.618421	1123.657715
3603.256466	0.097679	0.618421	1212.936768
3603.257372	0.097764	0.618421	1301.510620
3603.258309	0.097742	0.618421	1393.094604
3603.259215	0.097822	0.618421	1481.721558
3603.260125	0.097705	0.618421	1570.633179
3603.261012	0.097742	0.618421	1657.330078
3603.261959	0.097782	0.618421	1749.929565
3603.262858	0.097808	0.618421	1837.858643
3603.263755	0.097646	0.618421	1925.447510
3604.251085	1.016426	0.652131	449.260162
3604.252072	0.541227	0.652131	983.451050
3604.252980	0.100507	0.652131	1074.711060
3604.253872	0.097720	0.652131	1161.877075
3604.254808	0.097753	0.652131	1253.373535
3604.255712	0.097797	0.652131	1341.781738
3604.256610	0.097775	0.652131	1429.583374
3604.257502	0.097797	0.652131	1516.817993
3604.258465	0.097764	0.652131	1610.964355
3604.259360	0.097888	0.652131	1698.574219
3604.260261	0.097841	0.652131	1786.728516
3604.261148	0.097738	0.652131	1873.422119
